**Manufacturer reference [X138417] 
=> Used on CM03 [TT12]**


Thermometre :	CX_LS_X138417
Environment :	VA
Date :	06/02/2020
Function :	 logT = Sum ( Ai / logR^i )
Coefficients :	
A0=	856.941697592045780E+0
A1=	-14.449620226609975E+3
A2=	101.618670901681350E+3
A3=	-376.407495135782640E+3
A4=	725.970876394947990E+3
A5=	-397.058415720589460E+3
A6=	-1.249157231183789E+6
A7=	2.949991374526032E+6
A8=	-2.609985230332717E+6
A9=	879.549511431398690E+3
Rmes(Ohm)	Tmes(K)	Tfit(K)	dT(mK)	Courant(A)
1.507717E+3	9.9295	9.9319	-2.4440	1E-5
1.381673E+3	10.9377	10.9357	2.0359	1E-5
1.279751E+3	11.9297	11.9265	3.1823	1E-5
1.193936E+3	12.9218	12.9200	1.8241	1E-5
1.120568E+3	13.9137	13.9132	0.5105	1E-5
1.056958E+3	14.9028	14.9053	-2.5366	1E-5
9.958715E+2	15.9954	15.9964	-0.9541	1E-5
9.462243E+2	16.9978	17.0018	-3.9885	1E-5
9.021271E+2	17.9974	17.9998	-2.3991	1E-5
8.624399E+2	18.9941	18.9957	-1.6461	1E-5
8.263137E+2	19.9923	19.9947	-2.3815	1E-5
7.933701E+2	20.9927	20.9930	-0.2546	1E-5
7.631248E+2	21.9918	21.9924	-0.6242	1E-5
7.352857E+2	22.9918	22.9913	0.5142	1E-5
7.102288E+2	23.9654	23.9626	2.8288	1E-5
6.863271E+2	24.9626	24.9600	2.6113	1E-5
6.640442E+2	25.9621	25.9589	3.2173	1E-5
6.430104E+2	26.9727	26.9693	3.4480	1E-5
6.233795E+2	27.9805	27.9773	3.2204	1E-5
6.050221E+2	28.9846	28.9822	2.3567	1E-5
5.019355E+2	36.0576	36.0563	1.2579	1E-5
4.619052E+2	39.6795	39.6849	-5.4232	1E-5
3.607235E+2	52.5185	52.5328	-14.2799	1E-5
3.143846E+2	61.2133	61.2188	-5.4761	1E-5
2.779770E+2	70.0911	70.0887	2.3608	1E-5
2.459190E+2	80.0842	80.0743	9.8614	1E-4
2.180663E+2	91.1306	91.1150	15.6445	1E-4
1.995183E+2	100.1620	100.1486	13.3822	1E-4
1.813582E+2	110.7372	110.7376	-0.4035	1E-4
1.689426E+2	119.2331	119.2446	-11.4768	1E-4
1.568745E+2	128.7399	128.7552	-15.2847	1E-4
1.466149E+2	138.0127	138.0220	-9.3413	1E-4
1.368743E+2	148.0417	148.0537	-12.0168	1E-4
1.286785E+2	157.6186	157.6272	-8.5526	1E-4
1.215934E+2	166.9206	166.9108	9.7932	1E-4
1.152043E+2	176.2419	176.2390	2.9001	1E-4
1.086308E+2	186.9852	186.9666	18.5760	1E-4
1.032850E+2	196.7085	196.6955	13.0218	1E-4
9.979471E+1	203.6219	203.6145	7.3702	1E-4
9.542018E+1	213.0258	213.0137	12.0827	1E-4
8.749101E+1	232.4978	232.5168	-18.9893	1E-4
8.346204E+1	243.8910	243.9034	-12.3685	1E-4
8.031049E+1	253.6261	253.6459	-19.8331	1E-4
7.552071E+1	270.0980	270.1065	-8.4544	1E-4
7.050081E+1	290.0019	289.9724	29.4540	1E-4
6.829925E+1	299.7565	299.7305	26.0265	1E-4
6.600975E+1	310.6826	310.7110	-28.3634	1E-4
