**Manufacturer reference [X132660] 
=> Used on CM13 [TT05]**


Thermometre :	CX_LS_X132660
Environment :	VA
Date :	20/12/2018
Function :	 logT = Sum ( Ai / logR^i )
Coefficients :	
A0=	-11.679407947233335E+0
A1=	6.284813224156590E+3
A2=	-109.120987743384980E+3
A3=	833.271480899708460E+3
A4=	-3.624958806485097E+6
A5=	9.817132231253294E+6
A6=	-16.947489103117261E+6
A7=	18.213740430854082E+6
A8=	-11.142713632632451E+6
A9=	2.971262732516495E+6
Rmes(Ohm)	Tmes(K)	Tfit(K)	dT(mK)	Courant(A)
9.766414E+2	9.9348	9.9377	-2.9230	1E-5
9.040773E+2	10.9409	10.9381	2.7746	1E-5
8.445634E+2	11.9330	11.9297	3.3205	1E-5
7.940565E+2	12.9254	12.9231	2.3115	1E-5
7.504666E+2	13.9180	13.9178	0.1639	1E-5
7.123734E+2	14.9106	14.9124	-1.8010	1E-5
6.755197E+2	16.0033	16.0068	-3.4891	1E-5
6.456209E+2	17.0032	17.0067	-3.4984	1E-5
6.187182E+2	18.0024	18.0059	-3.5286	1E-5
5.943771E+2	19.0007	19.0029	-2.1853	1E-5
5.721599E+2	19.9985	20.0002	-1.6796	1E-5
5.517469E+2	20.9985	20.9992	-0.7020	1E-5
5.329767E+2	21.9964	21.9960	0.3514	1E-5
5.155961E+2	22.9954	22.9935	1.9375	1E-5
4.994561E+2	23.9939	23.9906	3.3126	1E-5
4.844064E+2	24.9922	24.9882	4.0235	1E-5
4.703407E+2	25.9900	25.9855	4.4811	1E-5
4.570991E+2	26.9931	26.9872	5.8867	1E-5
3.641058E+2	36.3143	36.3142	0.0505	1E-5
3.631389E+2	36.4395	36.4386	0.8692	1E-5
3.410267E+2	39.4855	39.4903	-4.8202	1E-5
2.733178E+2	52.1253	52.1422	-16.8791	1E-5
2.398865E+2	61.1893	61.1960	-6.7400	1E-5
2.152433E+2	69.7732	69.7678	5.4116	1E-5
1.911027E+2	80.4215	80.4061	15.4154	1E-4
1.722471E+2	90.8766	90.8619	14.7274	1E-4
1.624506E+2	97.2834	97.2744	9.0239	1E-4
1.446301E+2	111.1883	111.1917	-3.3860	1E-4
1.359662E+2	119.2675	119.2775	-10.0020	1E-4
1.272606E+2	128.4879	128.5034	-15.4855	1E-4
1.197638E+2	137.4972	137.5116	-14.4467	1E-4
1.121993E+2	147.7959	147.8082	-12.2554	1E-4
1.055531E+2	158.0671	158.0641	3.0435	1E-4
1.006262E+2	166.5443	166.5414	2.8828	1E-4
9.532275E+1	176.6657	176.6558	9.9471	1E-4
9.046416E+1	187.0037	186.9846	19.0976	1E-4
8.645938E+1	196.4194	196.3998	19.5853	1E-4
8.346807E+1	204.0498	204.0469	2.9377	1E-4
8.023285E+1	212.9978	212.9917	6.1383	1E-4
8.009903E+1	213.3790	213.3780	0.9558	1E-4
8.002942E+1	213.5806	213.5796	1.0299	1E-4
7.409892E+1	232.1992	232.2244	-25.1539	1E-4
7.101755E+1	243.1930	243.2229	-29.9001	1E-4
6.840716E+1	253.3541	253.3730	-18.8591	1E-4
6.472938E+1	269.2133	269.1909	22.4329	1E-4
6.438079E+1	270.8020	270.7945	7.5438	1E-4
6.033327E+1	291.0490	291.0121	36.9062	1E-4
5.933043E+1	296.5666	296.5539	12.6928	1E-4
5.862193E+1	300.5821	300.6236	-41.5383	1E-4
