**Manufacturer reference [X132661] 
=> Used on CM13 [TT22]**


Thermometre :	CX_LS_X132661
Environment :	VA
Date :	20/12/2018
Function :	 logT = Sum ( Ai / logR^i )
Coefficients :	
A0=	-127.678872724530140E+0
A1=	8.957606746305148E+3
A2=	-135.184777502252750E+3
A3=	976.027443397559110E+3
A4=	-4.112123173116592E+6
A5=	10.895349721484464E+6
A6=	-18.498100847693387E+6
A7=	19.611554028864350E+6
A8=	-11.858718204158133E+6
A9=	3.129625145878954E+6
Rmes(Ohm)	Tmes(K)	Tfit(K)	dT(mK)	Courant(A)
9.220216E+2	9.9348	9.9377	-2.8810	1E-5
8.546317E+2	10.9409	10.9383	2.6224	1E-5
7.993034E+2	11.9330	11.9295	3.4514	1E-5
7.522673E+2	12.9254	12.9231	2.3349	1E-5
7.116306E+2	13.9180	13.9178	0.2096	1E-5
6.760763E+2	14.9106	14.9124	-1.8492	1E-5
6.416464E+2	16.0033	16.0069	-3.5645	1E-5
6.136881E+2	17.0032	17.0068	-3.5796	1E-5
5.885112E+2	18.0024	18.0060	-3.5814	1E-5
5.657156E+2	19.0007	19.0028	-2.1214	1E-5
5.448900E+2	19.9985	20.0002	-1.6755	1E-5
5.257461E+2	20.9985	20.9991	-0.5556	1E-5
5.081268E+2	21.9964	21.9960	0.3882	1E-5
4.918034E+2	22.9955	22.9934	2.0642	1E-5
4.766343E+2	23.9940	23.9907	3.3055	1E-5
4.624850E+2	24.9922	24.9882	4.0024	1E-5
4.492507E+2	25.9901	25.9857	4.4242	1E-5
4.367876E+2	26.9931	26.9873	5.7778	1E-5
3.490584E+2	36.3153	36.3154	-0.0768	1E-5
3.481469E+2	36.4403	36.4394	0.8725	1E-5
3.272349E+2	39.4862	39.4911	-4.8696	1E-5
2.630562E+2	52.1262	52.1430	-16.8354	1E-5
2.312826E+2	61.1899	61.1965	-6.5727	1E-5
2.078201E+2	69.7739	69.7679	6.0371	1E-5
1.847954E+2	80.4229	80.4076	15.3147	1E-4
1.667842E+2	90.8782	90.8645	13.7244	1E-4
1.574174E+2	97.2848	97.2765	8.3240	1E-4
1.403575E+2	111.1897	111.1925	-2.8262	1E-4
1.320522E+2	119.2687	119.2780	-9.2549	1E-4
1.236983E+2	128.4893	128.5044	-15.0713	1E-4
1.164981E+2	137.4984	137.5127	-14.3015	1E-4
1.092261E+2	147.7972	147.8095	-12.3174	1E-4
1.028310E+2	158.0681	158.0660	2.1466	1E-4
9.808756E+1	166.5445	166.5420	2.4565	1E-4
9.297748E+1	176.6662	176.6559	10.2980	1E-4
8.829252E+1	187.0041	186.9848	19.3291	1E-4
8.442857E+1	196.4195	196.3997	19.7657	1E-4
8.154093E+1	204.0501	204.0468	3.2868	1E-4
7.841665E+1	212.9965	212.9910	5.4836	1E-4
7.828722E+1	213.3779	213.3779	0.0272	1E-4
7.821978E+1	213.5819	213.5800	1.9157	1E-4
7.248855E+1	232.1984	232.2238	-25.3582	1E-4
6.950838E+1	243.1935	243.2228	-29.2555	1E-4
6.698284E+1	253.3539	253.3722	-18.3098	1E-4
6.342277E+1	269.2102	269.1893	20.9408	1E-4
6.308499E+1	270.8018	270.7939	7.9046	1E-4
5.916430E+1	291.0465	291.0114	35.1034	1E-4
5.819333E+1	296.5666	296.5487	17.9382	1E-4
5.750589E+1	300.5787	300.6233	-44.6127	1E-4
