**Manufacturer reference [X133097] 
=> Used on CM08 [TT04]**


Thermometre :	CX_LS_X133097
Environment :	VA
Date :	25/01/2019
Function :	 logT = Sum ( Ai / logR^i )
Coefficients :	
A0=	1.093926341423118E+3
A1=	-15.488489027925420E+3
A2=	82.963887981715408E+3
A3=	-162.868200330003190E+3
A4=	-281.000328618837230E+3
A5=	2.290258021634941E+6
A6=	-5.602478045913730E+6
A7=	7.187305103825919E+6
A8=	-4.880569065575462E+6
A9=	1.389895256803971E+6
Rmes(Ohm)	Tmes(K)	Tfit(K)	dT(mK)	Courant(A)
8.334465E+2	9.9339	9.9374	-3.4766	1E-5
7.745095E+2	10.9394	10.9366	2.7913	1E-5
7.259565E+2	11.9317	11.9274	4.2952	1E-5
6.845774E+2	12.9239	12.9205	3.3535	1E-5
6.487208E+2	13.9155	13.9157	-0.1542	1E-5
6.172823E+2	14.9090	14.9107	-1.7489	1E-5
5.867987E+2	16.0015	16.0048	-3.2855	1E-5
5.619793E+2	17.0008	17.0050	-4.2440	1E-5
5.395969E+2	18.0000	18.0043	-4.3077	1E-5
5.193041E+2	18.9979	19.0009	-3.0281	1E-5
5.007394E+2	19.9952	19.9979	-2.6945	1E-5
4.836676E+2	20.9939	20.9952	-1.3463	1E-5
4.677872E+2	21.9999	22.0002	-0.3288	1E-5
4.533502E+2	22.9866	22.9855	1.1331	1E-5
4.395955E+2	23.9964	23.9941	2.2520	1E-5
4.270096E+2	24.9874	24.9829	4.5414	1E-5
4.149285E+2	26.0024	25.9966	5.7627	1E-5
4.039802E+2	26.9809	26.9751	5.8249	1E-5
3.931825E+2	28.0070	28.0006	6.4259	1E-5
3.185610E+2	37.2419	37.2412	0.7347	1E-5
3.178578E+2	37.3525	37.3511	1.3871	1E-5
3.088525E+2	38.8038	38.8074	-3.6393	1E-5
3.081387E+2	38.9247	38.9268	-2.1413	1E-5
2.435146E+2	52.8990	52.9127	-13.6713	1E-5
2.432317E+2	52.9790	52.9916	-12.5514	1E-5
2.166717E+2	61.3768	61.3815	-4.7239	1E-5
1.930209E+2	70.9408	70.9328	7.9583	1E-5
1.726130E+2	81.4289	81.4064	22.5271	1E-4
1.446074E+2	100.8377	100.8206	17.1024	1E-4
1.326262E+2	111.7046	111.7019	2.7197	1E-4
1.242420E+2	120.5773	120.5802	-2.8592	1E-4
1.165547E+2	129.8368	129.8480	-11.2044	1E-4
1.097150E+2	139.1623	139.1860	-23.7387	1E-4
1.021987E+2	150.8690	150.8886	-19.6440	1E-4
9.738991E+1	159.3146	159.3260	-11.4032	1E-4
8.828865E+1	177.8563	177.8438	12.4849	1E-4
8.286671E+1	190.8854	190.8633	22.1396	1E-4
7.995927E+1	198.6286	198.6038	24.8169	1E-4
7.658760E+1	208.3780	208.3573	20.7028	1E-4
7.347003E+1	218.2318	218.2247	7.0578	1E-4
6.793858E+1	238.1217	238.1377	-16.0405	1E-4
6.510410E+1	249.7325	249.7683	-35.7966	1E-4
6.349052E+1	256.8697	256.8971	-27.3657	1E-4
6.047643E+1	271.3279	271.3427	-14.8210	1E-4
5.887969E+1	279.6716	279.6708	0.8337	1E-4
5.697598E+1	290.3420	290.3092	32.7897	1E-4
5.593880E+1	296.5122	296.4721	40.0686	1E-4
5.540937E+1	299.7512	299.7289	22.3234	1E-4
5.368616E+1	310.8652	310.9130	-47.8307	1E-4
