**Manufacturer reference [X138143] 
=> Used on CM06 [TT04]**


Thermometre :	CX_LS_X138143
Environment :	VA
Date :	06/02/2020
Function :	 logT = Sum ( Ai / logR^i )
Coefficients :	
A0=	670.763629862502280E+0
A1=	-9.878788629863477E+3
A2=	53.149725268683418E+3
A3=	-83.312212071621267E+3
A4=	-392.592634128122820E+3
A5=	2.405400068222576E+6
A6=	-5.868943726974119E+6
A7=	7.790050110093215E+6
A8=	-5.538142723302986E+6
A9=	1.659738816281230E+6
Rmes(Ohm)	Tmes(K)	Tfit(K)	dT(mK)	Courant(A)
1.460960E+3	9.9294	9.9324	-2.9851	1E-5
1.341672E+3	10.9377	10.9352	2.4880	1E-5
1.244949E+3	11.9297	11.9262	3.5306	1E-5
1.163391E+3	12.9217	12.9197	1.9960	1E-5
1.093621E+3	13.9136	13.9121	1.4849	1E-5
1.033005E+3	14.9027	14.9041	-1.4134	1E-5
9.745586E+2	15.9954	15.9981	-2.6918	1E-5
9.272240E+2	16.9972	17.0015	-4.2630	1E-5
8.850504E+2	17.9959	17.9992	-3.2918	1E-5
8.469273E+2	18.9942	18.9982	-4.0346	1E-5
8.123914E+2	19.9920	19.9944	-2.3777	1E-5
7.807126E+2	20.9925	20.9946	-2.0967	1E-5
7.517278E+2	21.9912	21.9915	-0.3313	1E-5
7.249702E+2	22.9908	22.9897	1.1473	1E-5
7.008012E+2	23.9666	23.9628	3.8414	1E-5
6.778217E+2	24.9618	24.9578	3.9729	1E-5
6.563610E+2	25.9601	25.9550	5.0574	1E-5
6.360114E+2	26.9711	26.9674	3.7259	1E-5
6.170396E+2	27.9795	27.9754	4.0703	1E-5
5.992933E+2	28.9834	28.9798	3.5767	1E-5
4.993651E+2	36.0467	36.0458	0.8617	1E-5
4.603291E+2	39.6705	39.6765	-6.0174	1E-5
3.612012E+2	52.5134	52.5319	-18.4679	1E-5
3.155887E+2	61.2048	61.2144	-9.5734	1E-5
2.796641E+2	70.0706	70.0676	3.0277	1E-5
2.480266E+2	80.0125	79.9949	17.6457	1E-4
2.202322E+2	91.0742	91.0559	18.2569	1E-4
2.016657E+2	100.1307	100.1166	14.1333	1E-4
1.834977E+2	110.7104	110.7118	-1.3838	1E-4
1.710676E+2	119.2013	119.2136	-12.3144	1E-4
1.589601E+2	128.7036	128.7219	-18.3424	1E-4
1.486436E+2	137.9815	137.9927	-11.2431	1E-4
1.388383E+2	148.0108	148.0246	-13.8303	1E-4
1.305740E+2	157.5900	157.6013	-11.2764	1E-4
1.234198E+2	166.8985	166.8901	8.4419	1E-4
1.169647E+2	176.2230	176.2191	3.8664	1E-4
1.103178E+2	186.9674	186.9459	21.4817	1E-4
1.049033E+2	196.6988	196.6818	16.9688	1E-4
1.013532E+2	203.6442	203.6320	12.2058	1E-4
9.691800E+1	213.0540	213.0394	14.5794	1E-4
8.887710E+1	232.5258	232.5458	-20.0445	1E-4
8.478512E+1	243.9226	243.9400	-17.4201	1E-4
8.158158E+1	253.6655	253.6905	-25.0084	1E-4
7.670695E+1	270.1564	270.1703	-13.8909	1E-4
7.159747E+1	290.0796	290.0419	37.6859	1E-4
6.935450E+1	299.8440	299.8088	35.2166	1E-4
6.703045E+1	310.7258	310.7628	-36.9787	1E-4
