**Manufacturer reference [X138418] 
=> Used on CM03 [TT22]**


Thermometre :	CX_LS_X138418
Environment :	VA
Date :	06/02/2020
Function :	 logT = Sum ( Ai / logR^i )
Coefficients :	
A0=	726.076997359074540E+0
A1=	-10.463759925251645E+3
A2=	55.230998315585275E+3
A3=	-86.664889627311058E+3
A4=	-375.568112689328090E+3
A5=	2.285163574025726E+6
A6=	-5.466816568190444E+6
A7=	7.100074900321064E+6
A8=	-4.935422440506425E+6
A9=	1.445756511609646E+6
Rmes(Ohm)	Tmes(K)	Tfit(K)	dT(mK)	Courant(A)
1.194224E+3	9.9296	9.9326	-3.0027	1E-5
1.101029E+3	10.9377	10.9348	2.8772	1E-5
1.024961E+3	11.9296	11.9262	3.3771	1E-5
9.605422E+2	12.9219	12.9200	1.9344	1E-5
9.051678E+2	13.9138	13.9135	0.2685	1E-5
8.569897E+2	14.9028	14.9047	-1.8759	1E-5
8.103929E+2	15.9954	15.9974	-1.9927	1E-5
7.724537E+2	16.9979	17.0020	-4.1016	1E-5
7.385854E+2	17.9974	18.0005	-3.0773	1E-5
7.080205E+2	18.9941	18.9962	-2.0828	1E-5
6.801018E+2	19.9923	19.9951	-2.7708	1E-5
6.545632E+2	20.9927	20.9933	-0.6495	1E-5
6.310653E+2	21.9918	21.9921	-0.2772	1E-5
6.093584E+2	22.9919	22.9910	0.8571	1E-5
5.897849E+2	23.9654	23.9617	3.7061	1E-5
5.710393E+2	24.9626	24.9600	2.6095	1E-5
5.535524E+2	25.9622	25.9580	4.1916	1E-5
5.369814E+2	26.9728	26.9691	3.7037	1E-5
5.214966E+2	27.9806	27.9769	3.7347	1E-5
5.069810E+2	28.9847	28.9819	2.8172	1E-5
4.248662E+2	36.0581	36.0575	0.5780	1E-5
3.926911E+2	39.6799	39.6864	-6.5041	1E-5
3.105317E+2	52.5188	52.5344	-15.6099	1E-5
2.724583E+2	61.2137	61.2197	-6.0350	1E-5
2.423221E+2	70.0920	70.0883	3.6589	1E-5
2.155972E+2	80.0871	80.0760	11.1366	1E-4
1.922316E+2	91.1329	91.1168	16.0686	1E-4
1.765870E+2	100.1633	100.1497	13.5651	1E-4
1.611950E+2	110.7385	110.7382	0.2519	1E-4
1.506247E+2	119.2347	119.2460	-11.2991	1E-4
1.403118E+2	128.7414	128.7575	-16.1096	1E-4
1.315127E+2	138.0140	138.0251	-11.1166	1E-4
1.231308E+2	148.0429	148.0567	-13.7753	1E-4
1.160561E+2	157.6197	157.6292	-9.4571	1E-4
1.099225E+2	166.9217	166.9123	9.3546	1E-4
1.043779E+2	176.2426	176.2390	3.6459	1E-4
9.865821E+1	186.9859	186.9661	19.8262	1E-4
9.399625E+1	196.7089	196.6935	15.4044	1E-4
9.094704E+1	203.6210	203.6114	9.5985	1E-4
8.711843E+1	213.0246	213.0107	13.9460	1E-4
8.015913E+1	232.4967	232.5171	-20.3524	1E-4
7.661317E+1	243.8897	243.9055	-15.7793	1E-4
7.383496E+1	253.6243	253.6477	-23.4092	1E-4
6.960438E+1	270.0956	270.1046	-8.9953	1E-4
6.515924E+1	289.9993	289.9652	34.0749	1E-4
6.320619E+1	299.7529	299.7232	29.7446	1E-4
6.117234E+1	310.6809	310.7136	-32.6737	1E-4
