**Manufacturer reference [X133152] 
=> Used on CM12 [TT12]**


Thermometre :	CX_LS_X133152
Environment :	VA
Date :	20/12/2018
Function :	 logT = Sum ( Ai / logR^i )
Coefficients :	
A0=	161.163445949572550E+0
A1=	3.686706476994407E+3
A2=	-92.627193429307881E+3
A3=	776.318900356216240E+3
A4=	-3.511463467014761E+6
A5=	9.693823832552308E+6
A6=	-16.898607218495715E+6
A7=	18.244224567281947E+6
A8=	-11.177129111078512E+6
A9=	2.978557274041211E+6
Rmes(Ohm)	Tmes(K)	Tfit(K)	dT(mK)	Courant(A)
8.876835E+2	9.9348	9.9378	-3.0289	1E-5
8.242518E+2	10.9409	10.9381	2.7987	1E-5
7.720519E+2	11.9330	11.9295	3.5452	1E-5
7.275998E+2	12.9254	12.9230	2.4024	1E-5
6.891298E+2	13.9180	13.9178	0.1779	1E-5
6.554198E+2	14.9107	14.9126	-1.8899	1E-5
6.227325E+2	16.0034	16.0070	-3.5536	1E-5
5.961471E+2	17.0034	17.0070	-3.6206	1E-5
5.721790E+2	18.0026	18.0063	-3.6968	1E-5
5.504510E+2	19.0010	19.0033	-2.2996	1E-5
5.305823E+2	19.9990	20.0007	-1.6635	1E-5
5.123026E+2	20.9986	20.9994	-0.7627	1E-5
4.954587E+2	21.9966	21.9963	0.2536	1E-5
4.798381E+2	22.9958	22.9939	1.9199	1E-5
4.653118E+2	23.9945	23.9911	3.4133	1E-5
4.517460E+2	24.9930	24.9889	4.1000	1E-5
4.390504E+2	25.9913	25.9865	4.8347	1E-5
4.270930E+2	26.9936	26.9876	6.0414	1E-5
3.425246E+2	36.3275	36.3277	-0.1920	1E-5
3.416651E+2	36.4498	36.4489	0.9367	1E-5
3.214680E+2	39.4947	39.4993	-4.5626	1E-5
2.592443E+2	52.1370	52.1539	-16.9359	1E-5
2.283337E+2	61.1964	61.2038	-7.4345	1E-5
2.054346E+2	69.7826	69.7775	5.1076	1E-5
1.829016E+2	80.4416	80.4254	16.1511	1E-4
1.652495E+2	90.8978	90.8834	14.4463	1E-4
1.560574E+2	97.3027	97.2942	8.4631	1E-4
1.392858E+2	111.2073	111.2100	-2.7299	1E-4
1.311093E+2	119.2848	119.2935	-8.7005	1E-4
1.228731E+2	128.5077	128.5206	-12.9189	1E-4
1.157693E+2	137.5137	137.5263	-12.5704	1E-4
1.085794E+2	147.8129	147.8317	-18.7909	1E-4
1.022578E+2	158.0810	158.0847	-3.6865	1E-4
9.757427E+1	166.5462	166.5400	6.1870	1E-4
9.250911E+1	176.6729	176.6599	12.9684	1E-4
8.786548E+1	187.0088	186.9871	21.7082	1E-4
8.403331E+1	196.4206	196.3996	21.0180	1E-4
8.116598E+1	204.0538	204.0496	4.1798	1E-4
7.806943E+1	212.9794	212.9755	3.8924	1E-4
7.793996E+1	213.3640	213.3650	-1.0109	1E-4
7.786315E+1	213.5984	213.5967	1.6637	1E-4
7.217514E+1	232.1879	232.2134	-25.4858	1E-4
6.920597E+1	243.1986	243.2289	-30.2775	1E-4
6.669405E+1	253.3511	253.3704	-19.3402	1E-4
6.315578E+1	269.1708	269.1496	21.1678	1E-4
6.281187E+1	270.7982	270.7887	9.4650	1E-4
5.890856E+1	291.0149	290.9733	41.6046	1E-4
5.793092E+1	296.5670	296.5623	4.6627	1E-4
5.725515E+1	300.5393	300.5773	-37.9800	1E-4
