**Manufacturer reference [X133106] 
=> Used on CM12 [TT05]**


Thermometre :	CX_LS_X133106
Environment :	VA
Date :	15/04/2019
Function :	 logT = Sum ( Ai / logR^i )
Coefficients :	
A0=	836.329379463547870E+0
A1=	-10.648077515347830E+3
A2=	42.460457167611152E+3
A3=	35.437280571141331E+3
A4=	-907.492798269179770E+3
A5=	3.615248135247760E+6
A6=	-7.478760818366525E+6
A7=	8.902647530466437E+6
A8=	-5.799017294667647E+6
A9=	1.609235029892507E+6
Rmes(Ohm)	Tmes(K)	Tfit(K)	dT(mK)	Courant(A)
8.587762E+2	9.9296	9.9330	-3.4453	1E-5
7.968369E+2	10.9371	10.9339	3.2005	1E-5
7.460058E+2	11.9283	11.9244	3.8619	1E-5
7.027084E+2	12.9209	12.9184	2.5134	1E-5
6.652643E+2	13.9141	13.9138	0.3198	1E-5
6.325252E+2	14.9061	14.9076	-1.4705	1E-5
6.007273E+2	15.9995	16.0033	-3.8268	1E-5
5.748773E+2	17.0009	17.0049	-3.9872	1E-5
5.516207E+2	18.0007	18.0041	-3.3935	1E-5
5.305477E+2	18.9979	19.0010	-3.0530	1E-5
5.113031E+2	19.9949	19.9972	-2.3027	1E-5
4.935456E+2	20.9966	20.9981	-1.5285	1E-5
4.772285E+2	21.9945	21.9950	-0.4837	1E-5
4.621421E+2	22.9904	22.9896	0.7997	1E-5
4.480811E+2	23.9891	23.9863	2.7745	1E-5
4.349381E+2	24.9884	24.9849	3.5220	1E-5
4.226759E+2	25.9853	25.9804	4.9100	1E-5
4.112841E+2	26.9720	26.9656	6.4394	1E-5
4.002229E+2	27.9874	27.9827	4.7230	1E-5
3.900074E+2	28.9833	28.9795	3.7525	1E-5
3.317881E+2	35.9726	35.9741	-1.4790	1E-5
3.090300E+2	39.4930	39.4995	-6.4930	1E-5
2.491337E+2	52.1253	52.1430	-17.7175	1E-5
2.195375E+2	61.1347	61.1427	-8.0379	1E-5
1.978534E+2	69.5606	69.5614	-0.7945	1E-5
1.763789E+2	80.0835	80.0595	23.9717	1E-4
1.588784E+2	90.8304	90.8149	15.4534	1E-4
1.471216E+2	99.5393	99.5280	11.3025	1E-4
1.351125E+2	110.0258	110.0299	-4.0718	1E-4
1.266583E+2	118.6284	118.6332	-4.8443	1E-4
1.187180E+2	127.8173	127.8357	-18.3582	1E-4
1.115395E+2	137.2704	137.2842	-13.8267	1E-4
1.048059E+2	147.3126	147.3241	-11.4970	1E-4
9.891562E+1	157.2171	157.2313	-14.1719	1E-4
9.400291E+1	166.4546	166.4534	1.1866	1E-4
8.951008E+1	175.8022	175.7908	11.4122	1E-4
8.508600E+1	185.9933	185.9785	14.8051	1E-4
8.115399E+1	196.0283	196.0056	22.6877	1E-4
7.844621E+1	203.5487	203.5268	21.8615	1E-4
7.531898E+1	212.9381	212.9292	8.9462	1E-4
7.006051E+1	230.7605	230.7759	-15.4044	1E-4
6.717892E+1	241.8147	241.8411	-26.4058	1E-4
6.474452E+1	251.9976	252.0272	-29.5835	1E-4
6.103934E+1	269.2519	269.2549	-2.9681	1E-4
5.713685E+1	290.1978	290.1624	35.3948	1E-4
5.491645E+1	303.7209	303.6814	39.4680	1E-4
5.375556E+1	311.3006	311.3448	-44.1813	1E-4
