**Manufacturer reference [X133154] 
=> Used on CM12 [TT22]**


Thermometre :	CX_LS_X133154
Environment :	VA
Date :	20/12/2018
Function :	 logT = Sum ( Ai / logR^i )
Coefficients :	
A0=	187.567407876314260E+0
A1=	3.594001929048200E+3
A2=	-93.725747041850554E+3
A3=	782.453845972692830E+3
A4=	-3.504550076237438E+6
A5=	9.561398460568761E+6
A6=	-16.458353913343443E+6
A7=	17.537894694652312E+6
A8=	-10.602061818757059E+6
A9=	2.787468802915650E+6
Rmes(Ohm)	Tmes(K)	Tfit(K)	dT(mK)	Courant(A)
7.900380E+2	9.9348	9.9379	-3.0624	1E-5
7.351196E+2	10.9409	10.9381	2.8024	1E-5
6.898181E+2	11.9330	11.9294	3.5802	1E-5
6.511622E+2	12.9254	12.9229	2.5370	1E-5
6.176353E+2	13.9180	13.9179	0.1045	1E-5
5.882160E+2	14.9107	14.9126	-1.8558	1E-5
5.596364E+2	16.0034	16.0070	-3.6288	1E-5
5.363604E+2	17.0034	17.0070	-3.6290	1E-5
5.153453E+2	18.0026	18.0063	-3.7473	1E-5
4.962705E+2	19.0010	19.0034	-2.3883	1E-5
4.788068E+2	19.9990	20.0008	-1.8291	1E-5
4.627243E+2	20.9987	20.9995	-0.7561	1E-5
4.478899E+2	21.9967	21.9963	0.3701	1E-5
4.341178E+2	22.9958	22.9938	1.9519	1E-5
4.212970E+2	23.9946	23.9912	3.4499	1E-5
4.093145E+2	24.9931	24.9889	4.1512	1E-5
3.980897E+2	25.9915	25.9866	4.8829	1E-5
3.875120E+2	26.9937	26.9875	6.1849	1E-5
3.124181E+2	36.3291	36.3295	-0.4230	1E-5
3.116567E+2	36.4511	36.4500	1.0511	1E-5
2.936541E+2	39.4959	39.5004	-4.4612	1E-5
2.379930E+2	52.1385	52.1558	-17.3064	1E-5
2.102275E+2	61.1973	61.2048	-7.4577	1E-5
1.895979E+2	69.7838	69.7786	5.1881	1E-5
1.692432E+2	80.4442	80.4280	16.1899	1E-4
1.532590E+2	90.9007	90.8861	14.6090	1E-4
1.449208E+2	97.3051	97.2964	8.7308	1E-4
1.296759E+2	111.2099	111.2119	-2.0387	1E-4
1.222286E+2	119.2870	119.2952	-8.1896	1E-4
1.147161E+2	128.5103	128.5220	-11.7006	1E-4
1.082219E+2	137.5160	137.5352	-19.1803	1E-4
1.016503E+2	147.8153	147.8327	-17.3544	1E-4
9.585969E+1	158.0829	158.0853	-2.3501	1E-4
9.156503E+1	166.5465	166.5389	7.5664	1E-4
8.691368E+1	176.6738	176.6603	13.5139	1E-4
8.264514E+1	187.0095	186.9873	22.1550	1E-4
7.911878E+1	196.4208	196.3997	21.1038	1E-4
7.647773E+1	204.0544	204.0503	4.1133	1E-4
7.362434E+1	212.9769	212.9733	3.5934	1E-4
7.350471E+1	213.3621	213.3636	-1.4736	1E-4
7.343275E+1	213.6008	213.5990	1.8175	1E-4
6.818370E+1	232.1864	232.2132	-26.7541	1E-4
6.543941E+1	243.1994	243.2304	-30.9749	1E-4
6.311654E+1	253.3507	253.3705	-19.8418	1E-4
5.984256E+1	269.1649	269.1425	22.3843	1E-4
5.952304E+1	270.7977	270.7866	11.1127	1E-4
5.590602E+1	291.0102	290.9665	43.6966	1E-4
5.499696E+1	296.5671	296.5694	-2.3074	1E-4
5.437251E+1	300.5339	300.5681	-34.1526	1E-4
