**Manufacturer reference [X132669] 
=> Used on CM12 [TT07]**


Thermometre :	CX_LS_X132669
Environment :	VA
Date :	20/12/2018
Function :	 logT = Sum ( Ai / logR^i )
Coefficients :	
A0=	-119.577791649761880E+0
A1=	8.475355142865828E+3
A2=	-128.368836617703270E+3
A3=	929.351521677783690E+3
A4=	-3.924855075372271E+6
A5=	10.422295475192092E+6
A6=	-17.732449004019998E+6
A7=	18.838310850545682E+6
A8=	-11.413870079914620E+6
A9=	3.018105068567724E+6
Rmes(Ohm)	Tmes(K)	Tfit(K)	dT(mK)	Courant(A)
9.491784E+2	9.9348	9.9377	-2.9055	1E-5
8.789404E+2	10.9409	10.9382	2.7222	1E-5
8.213269E+2	11.9330	11.9296	3.4382	1E-5
7.724013E+2	12.9254	12.9232	2.2418	1E-5
7.301765E+2	13.9180	13.9179	0.1401	1E-5
6.932616E+2	14.9107	14.9126	-1.8746	1E-5
6.575509E+2	16.0033	16.0068	-3.5247	1E-5
6.285695E+2	17.0033	17.0068	-3.4665	1E-5
6.024870E+2	18.0025	18.0061	-3.5822	1E-5
5.788892E+2	19.0008	19.0029	-2.1274	1E-5
5.573435E+2	19.9987	20.0003	-1.5922	1E-5
5.375485E+2	20.9985	20.9992	-0.7005	1E-5
5.193401E+2	21.9965	21.9962	0.3383	1E-5
5.024798E+2	22.9956	22.9936	2.0314	1E-5
4.868201E+2	23.9942	23.9908	3.4460	1E-5
4.722157E+2	24.9925	24.9885	4.0286	1E-5
4.585644E+2	25.9905	25.9860	4.5279	1E-5
4.457166E+2	26.9933	26.9874	5.8714	1E-5
3.553845E+2	36.3193	36.3197	-0.4441	1E-5
3.544567E+2	36.4434	36.4426	0.7648	1E-5
3.329806E+2	39.4890	39.4939	-4.8961	1E-5
2.671695E+2	52.1297	52.1465	-16.7587	1E-5
2.346590E+2	61.1921	61.1987	-6.5956	1E-5
2.106784E+2	69.7768	69.7704	6.4066	1E-5
1.871676E+2	80.4292	80.4131	16.0994	1E-4
1.688011E+2	90.8848	90.8708	14.0357	1E-4
1.592574E+2	97.2906	97.2832	7.4359	1E-4
1.418903E+2	111.1956	111.1999	-4.2853	1E-4
1.334442E+2	119.2741	119.2843	-10.1646	1E-4
1.249532E+2	128.4955	128.5100	-14.4789	1E-4
1.176394E+2	137.5035	137.5171	-13.5928	1E-4
1.102558E+2	147.8023	147.8137	-11.3991	1E-4
1.037665E+2	158.0723	158.0689	3.3643	1E-4
9.895616E+1	166.5450	166.5422	2.8398	1E-4
9.377290E+1	176.6684	176.6584	9.9655	1E-4
8.902390E+1	187.0056	186.9870	18.6258	1E-4
8.510859E+1	196.4199	196.4011	18.8437	1E-4
8.218281E+1	204.0514	204.0487	2.6563	1E-4
7.902068E+1	212.9907	212.9859	4.7929	1E-4
7.888927E+1	213.3733	213.3737	-0.4171	1E-4
7.881784E+1	213.5873	213.5851	2.2078	1E-4
7.301808E+1	232.1949	232.2193	-24.4488	1E-4
7.000053E+1	243.1951	243.2238	-28.6608	1E-4
6.744611E+1	253.3529	253.3704	-17.4895	1E-4
6.384787E+1	269.1969	269.1766	20.2934	1E-4
6.350402E+1	270.8006	270.7920	8.6235	1E-4
5.954212E+1	291.0360	290.9983	37.6865	1E-4
5.855634E+1	296.5667	296.5588	7.8857	1E-4
5.786635E+1	300.5657	300.6036	-37.9351	1E-4
