Thermometre :	CX_LS_X107587
Environment :	VA
Date :	25/02/2016
Function :	 logT = Sum ( Ai / logR^i )
Coefficients :	
A0=	1.042263242442844E+3
A1=	-15.737860186489434E+3
A2=	94.507607298968534E+3
A3=	-260.319789545259880E+3
A4=	134.690809868519110E+3
A5=	1.236154645535768E+6
A6=	-3.944412955152460E+6
A7=	5.598323578284753E+6
A8=	-4.031806282628174E+6
A9=	1.196924827510891E+6
Rmes(Ohm)	Tmes(K)	Tfit(K)	dT(mK)	Courant(A)
9.822834E+2	9.9281	9.9315	-3.3510	1E-5
9.090659E+2	10.9344	10.9313	3.0818	1E-5
8.488684E+2	11.9305	11.9257	4.7830	1E-5
7.977845E+2	12.9238	12.9228	1.0447	1E-5
7.540734E+2	13.9116	13.9126	-1.0223	1E-5
7.158357E+2	14.9021	14.9027	-0.5952	1E-5
6.786885E+2	15.9935	15.9963	-2.8059	1E-5
6.483715E+2	16.9988	17.0017	-2.9062	1E-5
6.212995E+2	17.9956	17.9989	-3.3408	1E-5
5.968468E+2	18.9885	18.9919	-3.3773	1E-5
5.744720E+2	19.9854	19.9873	-1.9318	1E-5
5.538890E+2	20.9848	20.9856	-0.8097	1E-5
5.348003E+2	21.9902	21.9905	-0.3342	1E-5
5.172886E+2	22.9871	22.9870	0.1195	1E-5
5.010348E+2	23.9837	23.9826	1.1486	1E-5
4.858066E+2	24.9873	24.9834	3.8963	1E-5
4.716314E+2	25.9844	25.9801	4.3219	1E-5
4.583440E+2	26.9818	26.9766	5.1585	1E-5
4.458535E+2	27.9783	27.9734	4.8914	1E-5
4.340351E+2	28.9779	28.9747	3.1572	1E-5
4.239807E+2	29.8760	29.8748	1.1759	1E-5
3.718622E+2	35.3931	35.3938	-0.7228	1E-5
3.377101E+2	40.0034	40.0103	-6.9278	1E-5
2.754895E+2	51.5570	51.5722	-15.2193	1E-5
2.408656E+2	60.7391	60.7461	-7.0384	1E-5
2.131038E+2	70.3629	70.3600	2.8534	1E-5
1.916850E+2	79.7663	79.7568	9.5100	1E-4
1.761320E+2	88.0709	88.0564	14.5370	1E-4
1.614893E+2	97.3744	97.3620	12.4270	1E-4
1.488840E+2	106.8608	106.8555	5.2632	1E-4
1.377623E+2	116.6712	116.6774	-6.1779	1E-4
1.279584E+2	126.7343	126.7439	-9.5878	1E-4
1.198133E+2	136.3354	136.3482	-12.8278	1E-4
1.120170E+2	146.8173	146.8367	-19.3896	1E-4
1.067522E+2	154.7660	154.7804	-14.4261	1E-4
9.962241E+1	166.8705	166.8777	-7.1550	1E-4
9.785614E+1	170.1528	170.1492	3.5525	1E-4
9.200102E+1	181.9277	181.9102	17.4784	1E-4
8.751109E+1	192.0484	192.0276	20.7617	1E-4
8.491218E+1	198.4202	198.3936	26.5877	1E-4
8.127071E+1	208.0556	208.0351	20.5389	1E-4
7.870399E+1	215.4052	215.4006	4.6154	1E-4
7.492383E+1	227.2213	227.2343	-12.9879	1E-4
7.220838E+1	236.5336	236.5617	-28.0890	1E-4
6.883885E+1	249.2143	249.2513	-37.0124	1E-4
6.367154E+1	271.5832	271.6008	-17.5988	1E-4
6.238485E+1	277.8222	277.8144	7.8468	1E-4
6.016733E+1	289.2812	289.2488	32.4169	1E-4
5.988057E+1	290.8316	290.8010	30.6391	1E-4
5.646523E+1	310.7995	310.8257	-26.1893	1E-4
