Thermometre :	CX_LS_X90274
Environment :	VA
Date :	04/12/2014
Function :	 logT = Sum ( Ai / logR^i )
Coefficients :	
A0=	-1.781826321670284E+3
A1=	45.832543668046055E+3
A2=	-494.331000696245120E+3
A3=	2.987249203218589E+6
A4=	-11.263521707083005E+6
A5=	27.665859735836942E+6
A6=	-44.467344654312283E+6
A7=	45.242061062556043E+6
A8=	-26.500090587961927E+6
A9=	6.820360265628378E+6
Rmes(Ohm)	Tmes(K)	Tfit(K)	dT(mK)	Courant(A)
6.031105E+1	310.6338	310.6918	-57.9774	1E-4
6.204216E+1	300.3491	300.2894	59.7129	1E-4
6.384733E+1	290.2703	290.2186	51.6939	1E-4
6.567448E+1	280.7042	280.7078	-3.6081	1E-4
6.772296E+1	270.7361	270.7518	-15.6929	1E-4
7.124912E+1	255.0722	255.1184	-46.1525	1E-4
7.452544E+1	242.0257	242.0564	-30.6560	1E-4
7.724126E+1	232.1342	232.1507	-16.5353	1E-4
8.058858E+1	220.9635	220.9460	17.4915	1E-4
8.330617E+1	212.6018	212.5706	31.2191	1E-4
8.954923E+1	195.4153	195.4062	9.0978	1E-4
9.337735E+1	186.1247	186.0935	31.2321	1E-4
9.922025E+1	173.3457	173.3378	7.9253	1E-4
1.010005E+2	169.7633	169.7574	5.8968	1E-4
1.073864E+2	157.9170	157.9227	-5.7389	1E-4
1.125326E+2	149.3653	149.3876	-22.2771	1E-4
1.197467E+2	138.6585	138.6812	-22.7100	1E-4
1.278043E+2	128.1606	128.1765	-15.8665	1E-4
1.360928E+2	118.6823	118.6942	-11.9167	1E-4
1.464364E+2	108.4112	108.4061	5.0575	1E-4
1.575637E+2	98.9124	98.9008	11.6307	1E-4
1.707041E+2	89.3681	89.3469	21.2239	1E-4
1.849941E+2	80.6051	80.5882	16.9413	1E-4
2.029484E+2	71.4549	71.4526	2.2900	1E-5
2.276162E+2	61.4244	61.4324	-7.9971	1E-5
2.575933E+2	52.0336	52.0546	-20.9515	1E-5
3.101876E+2	40.3542	40.3622	-7.9852	1E-5
3.366200E+2	36.0064	36.0044	2.0124	1E-5
3.839420E+2	29.8765	29.8733	3.2304	1E-5
3.922263E+2	28.9763	28.9726	3.7428	1E-5
4.018876E+2	27.9803	27.9761	4.1666	1E-5
4.121760E+2	26.9792	26.9744	4.7927	1E-5
4.230439E+2	25.9815	25.9777	3.7743	1E-5
4.346239E+2	24.9833	24.9798	3.5226	1E-5
4.469663E+2	23.9844	23.9830	1.4419	1E-5
4.601758E+2	22.9869	22.9861	0.8346	1E-5
4.746567E+2	21.9687	21.9690	-0.2913	1E-5
4.900063E+2	20.9675	20.9694	-1.9459	1E-5
5.065886E+2	19.9682	19.9717	-3.4922	1E-5
5.242696E+2	18.9899	18.9923	-2.4271	1E-5
5.436544E+2	18.0056	18.0083	-2.7054	1E-5
5.655343E+2	16.9938	16.9978	-4.0280	1E-5
5.895191E+2	15.9948	15.9977	-2.9295	1E-5
6.190348E+2	14.9001	14.9011	-1.0471	1E-5
6.493662E+2	13.9077	13.9068	0.8923	1E-5
6.839843E+2	12.9151	12.9113	3.8425	1E-5
7.706423E+2	10.9335	10.9290	4.5193	1E-5
8.275049E+2	9.9257	9.9290	-3.2731	1E-5
