Thermometre :	CX_LS_X55848
Environment :	VA
Date :	21/06/2012
Function :	 logT = Sum ( Ai / logR^i )
Coefficients :	
A0=	202.241745016633560E+0
A1=	-3.374419810103835E+3
A2=	22.781344139957509E+3
A3=	-75.719758776311675E+3
A4=	99.577629015400816E+3
A5=	136.272994680967500E+3
A6=	-748.151868522828450E+3
A7=	1.239174157656049E+6
A8=	-979.469524564450490E+3
A9=	312.129109021319080E+3
Rmes(Ohm)	Tmes(K)	Tfit(K)	dT(mK)	Courant(A)
6.143052E+1	310.3367	310.3476	-10.8944	1E-4
6.325853E+1	300.9530	300.9493	3.6512	1E-4
6.547544E+1	290.4022	290.3919	10.2675	1E-4
6.774579E+1	280.4167	280.4083	8.4476	1E-4
7.022715E+1	270.3362	270.3296	6.5877	1E-4
7.482382E+1	253.5944	253.6047	-10.2682	1E-4
7.901137E+1	240.1879	240.2015	-13.5566	1E-4
8.215106E+1	231.0894	231.1099	-20.5324	1E-4
8.670222E+1	219.1806	219.1665	14.0656	1E-4
8.677699E+1	218.9837	218.9813	2.3832	1E-4
9.016879E+1	210.9209	210.9166	4.3223	1E-4
9.028992E+1	210.6390	210.6402	-1.2394	1E-4
9.508884E+1	200.2699	200.2783	-8.3611	1E-4
9.841388E+1	193.7079	193.7081	-0.2202	1E-4
1.034329E+2	184.6225	184.6060	16.5001	1E-4
1.109503E+2	172.5406	172.5276	13.0096	1E-4
1.142566E+2	167.7279	167.7189	8.9835	1E-4
1.228113E+2	156.4677	156.4695	-1.7646	1E-4
1.296602E+2	148.5102	148.5183	-8.1201	1E-4
1.397404E+2	138.1945	138.2055	-10.9966	1E-4
1.520891E+2	127.3823	127.3911	-8.7807	1E-4
1.649069E+2	117.8297	117.8350	-5.3180	1E-4
1.810254E+2	107.6861	107.6902	-4.1006	1E-4
1.987771E+2	98.3838	98.3763	7.4553	1E-4
2.217209E+2	88.5095	88.5028	6.6876	1E-4
2.452912E+2	80.2547	80.2502	4.4569	1E-4
2.790302E+2	70.8372	70.8304	6.7742	1E-5
3.190178E+2	62.2147	62.2172	-2.5320	1E-5
4.003165E+2	49.9567	49.9609	-4.2049	1E-5
4.421289E+2	45.3891	45.3942	-5.0939	1E-5
5.017136E+2	40.1812	40.1859	-4.6615	1E-5
5.641336E+2	35.8952	35.8946	0.6255	1E-5
6.824377E+2	29.8887	29.8882	0.5336	1E-5
7.047361E+2	28.9795	28.9790	0.5274	1E-5
7.308606E+2	27.9856	27.9835	2.1464	1E-5
7.590272E+2	26.9883	26.9860	2.3298	1E-5
7.894232E+2	25.9925	25.9885	3.9992	1E-5
8.225791E+2	24.9848	24.9837	1.1261	1E-5
8.582612E+2	23.9903	23.9882	2.0521	1E-5
8.967899E+2	23.0026	23.0017	0.9154	1E-5
9.399846E+2	21.9908	21.9912	-0.4359	1E-5
9.871594E+2	20.9863	20.9883	-1.9971	1E-5
1.038974E+3	19.9899	19.9915	-1.5696	1E-5
1.096612E+3	18.9923	18.9933	-1.0415	1E-5
1.161054E+3	17.9936	17.9951	-1.5074	1E-5
1.233721E+3	16.9941	16.9954	-1.2573	1E-5
1.316080E+3	15.9956	15.9971	-1.4501	1E-5
1.411978E+3	14.9829	14.9834	-0.5035	1E-5
1.521398E+3	13.9859	13.9858	0.1472	1E-5
1.650139E+3	12.9861	12.9853	0.8216	1E-5
1.803641E+3	11.9865	11.9844	2.0864	1E-5
1.989503E+3	10.9872	10.9865	0.6906	1E-5
2.222124E+3	9.9815	9.9827	-1.1896	1E-5
