Thermometre :	CX_LS_X90155
Environment :	VA
Date :	04/12/2014
Function :	 logT = Sum ( Ai / logR^i )
Coefficients :	
A0=	23.596867155091168E+0
A1=	3.360740479931657E+3
A2=	-70.764451412947674E+3
A3=	614.274869132453580E+3
A4=	-2.989167149643858E+6
A5=	8.996450573009161E+6
A6=	-17.201744267356951E+6
A7=	20.434527319387306E+6
A8=	-13.799208315098863E+6
A9=	4.057470945310865E+6
Rmes(Ohm)	Tmes(K)	Tfit(K)	dT(mK)	Courant(A)
8.623168E+1	310.6592	310.6967	-37.4820	1E-4
8.913827E+1	300.3747	300.3352	39.4756	1E-4
9.219319E+1	290.2920	290.2606	31.4007	1E-4
9.531370E+1	280.7024	280.7069	-4.5468	1E-4
9.881930E+1	270.7411	270.7450	-3.8783	1E-4
1.049035E+2	255.0735	255.1071	-33.6280	1E-4
1.106132E+2	242.0261	242.0433	-17.2252	1E-4
1.153828E+2	232.1306	232.1429	-12.2750	1E-4
1.213031E+2	220.9649	220.9539	11.0033	1E-4
1.261511E+2	212.6028	212.5820	20.8410	1E-4
1.374331E+2	195.3921	195.3922	-0.0567	1E-4
1.444162E+2	186.1145	186.0901	24.4273	1E-4
1.552149E+2	173.3349	173.3258	9.1120	1E-4
1.585262E+2	169.7528	169.7517	1.1399	1E-4
1.705432E+2	157.9083	157.9104	-2.0793	1E-4
1.803566E+2	149.3534	149.3689	-15.4545	1E-4
1.942971E+2	138.6444	138.6588	-14.3867	1E-4
2.101139E+2	128.1473	128.1564	-9.0601	1E-4
2.266492E+2	118.6712	118.6800	-8.7999	1E-4
2.476672E+2	108.3949	108.3934	1.5376	1E-4
2.707146E+2	98.8978	98.8920	5.8020	1E-4
2.984998E+2	89.3561	89.3409	15.1862	1E-4
3.293929E+2	80.5935	80.5814	12.0670	1E-4
3.691382E+2	71.4481	71.4479	0.2251	1E-5
4.254337E+2	61.4194	61.4229	-3.4576	1E-5
4.963752E+2	52.0227	52.0361	-13.3805	1E-5
6.269044E+2	40.3505	40.3562	-5.6988	1E-5
6.954691E+2	36.0020	36.0002	1.8019	1E-5
8.228288E+2	29.8758	29.8750	0.8276	1E-5
8.457455E+2	28.9757	28.9742	1.4614	1E-5
8.726984E+2	27.9799	27.9776	2.3199	1E-5
9.016701E+2	26.9784	26.9753	3.1141	1E-5
9.325479E+2	25.9809	25.9785	2.4348	1E-5
9.657602E+2	24.9829	24.9806	2.2651	1E-5
1.001579E+3	23.9842	23.9823	1.9313	1E-5
1.040272E+3	22.9867	22.9851	1.6052	1E-5
1.083126E+3	21.9683	21.9686	-0.2543	1E-5
1.129119E+3	20.9672	20.9687	-1.4740	1E-5
1.179401E+3	19.9685	19.9707	-2.2185	1E-5
1.233664E+3	18.9903	18.9916	-1.2882	1E-5
1.294180E+3	18.0031	18.0040	-0.9157	1E-5
1.362981E+3	16.9937	16.9967	-3.0400	1E-5
1.439732E+3	15.9948	15.9970	-2.2399	1E-5
1.535741E+3	14.9000	14.9011	-1.0800	1E-5
1.636147E+3	13.9077	13.9073	0.3586	1E-5
1.752829E+3	12.9150	12.9123	2.6528	1E-5
2.054175E+3	10.9335	10.9304	3.0921	1E-5
2.259127E+3	9.9256	9.9278	-2.1710	1E-5
