**Manufacturer reference [X138362] 
=> Used on CM10 [TT04]**


Thermometre :	CX_LS_X138362
Environment :	VA
Date :	06/02/2020
Function :	 logT = Sum ( Ai / logR^i )
Coefficients :	
A0=	751.285257243461270E+0
A1=	-10.918930289081096E+3
A2=	58.881133887000913E+3
A3=	-103.759614493727800E+3
A4=	-323.956934927335470E+3
A5=	2.180812455770412E+6
A6=	-5.325260290193649E+6
A7=	6.975601323864925E+6
A8=	-4.870926490606614E+6
A9=	1.430729924761810E+6
Rmes(Ohm)	Tmes(K)	Tfit(K)	dT(mK)	Courant(A)
1.181198E+3	9.9295	9.9324	-2.9087	1E-5
1.089136E+3	10.9377	10.9350	2.6872	1E-5
1.014014E+3	11.9297	11.9266	3.1125	1E-5
9.504430E+2	12.9218	12.9197	2.0797	1E-5
8.957605E+2	13.9137	13.9133	0.4430	1E-5
8.481954E+2	14.9027	14.9041	-1.3720	1E-5
8.021965E+2	15.9954	15.9962	-0.7854	1E-5
7.646576E+2	16.9976	17.0026	-4.9649	1E-5
7.312133E+2	17.9968	18.0008	-4.0382	1E-5
7.010135E+2	18.9941	18.9969	-2.7643	1E-5
6.734801E+2	19.9922	19.9941	-1.8785	1E-5
6.481959E+2	20.9926	20.9945	-1.9275	1E-5
6.250176E+2	21.9916	21.9917	-0.1234	1E-5
6.035729E+2	22.9914	22.9906	0.8213	1E-5
5.842231E+2	23.9659	23.9617	4.1702	1E-5
5.657219E+2	24.9623	24.9588	3.4531	1E-5
5.484255E+2	25.9613	25.9578	3.5023	1E-5
5.320587E+2	26.9720	26.9683	3.6600	1E-5
5.167555E+2	27.9801	27.9761	3.9872	1E-5
5.024142E+2	28.9841	28.9808	3.3003	1E-5
4.212868E+2	36.0531	36.0522	0.8890	1E-5
3.894647E+2	39.6757	39.6818	-6.1099	1E-5
3.081879E+2	52.5164	52.5329	-16.5114	1E-5
2.705227E+2	61.2098	61.2172	-7.4005	1E-5
2.407120E+2	70.0826	70.0799	2.6701	1E-5
2.143071E+2	80.0546	80.0414	13.1855	1E-4
1.911302E+2	91.1072	91.0899	17.2768	1E-4
1.756005E+2	100.1487	100.1340	14.6860	1E-4
1.603317E+2	110.7259	110.7262	-0.2665	1E-4
1.498487E+2	119.2200	119.2319	-11.8727	1E-4
1.396168E+2	128.7246	128.7419	-17.3167	1E-4
1.308823E+2	137.9998	138.0102	-10.3957	1E-4
1.225606E+2	148.0286	148.0414	-12.8356	1E-4
1.155330E+2	157.6067	157.6164	-9.6709	1E-4
1.094342E+2	166.9112	166.9097	1.5290	1E-4
1.039308E+2	176.2338	176.2280	5.7935	1E-4
9.824704E+1	186.9778	186.9550	22.7699	1E-4
9.361131E+1	196.7045	196.6867	17.8303	1E-4
9.057371E+1	203.6311	203.6195	11.5918	1E-4
8.676555E+1	213.0378	213.0235	14.2579	1E-4
7.984423E+1	232.5095	232.5308	-21.3095	1E-4
7.631557E+1	243.9040	243.9217	-17.6662	1E-4
7.354979E+1	253.6426	253.6673	-24.7200	1E-4
6.933603E+1	270.1222	270.1334	-11.1922	1E-4
6.490881E+1	290.0342	289.9972	36.9689	1E-4
6.296276E+1	299.7928	299.7597	33.0986	1E-4
6.093966E+1	310.7006	310.7363	-35.7491	1E-4
