**Manufacturer reference [X133167] 
=> Used on CM10 [TT05]**


Thermometre :	CX_LS_X133167
Environment :	VA
Date :	20/12/2018
Function :	 logT = Sum ( Ai / logR^i )
Coefficients :	
A0=	296.045680112779790E+0
A1=	1.849647467479932E+3
A2=	-80.700304261468336E+3
A3=	721.562371459204350E+3
A4=	-3.305411686537967E+6
A5=	9.092546539330188E+6
A6=	-15.682222361335693E+6
A7=	16.689195054905791E+6
A8=	-10.056659482432509E+6
A9=	2.632413962699230E+6
Rmes(Ohm)	Tmes(K)	Tfit(K)	dT(mK)	Courant(A)
7.333705E+2	9.9349	9.9381	-3.1548	1E-5
6.834335E+2	10.9410	10.9381	2.8727	1E-5
6.421655E+2	11.9331	11.9294	3.7194	1E-5
6.068911E+2	12.9255	12.9229	2.5672	1E-5
5.762589E+2	13.9181	13.9179	0.1662	1E-5
5.493413E+2	14.9108	14.9127	-1.9197	1E-5
5.231635E+2	16.0035	16.0072	-3.6899	1E-5
5.018178E+2	17.0034	17.0073	-3.8612	1E-5
4.825277E+2	18.0027	18.0066	-3.8693	1E-5
4.650028E+2	19.0011	19.0036	-2.4604	1E-5
4.489421E+2	19.9993	20.0011	-1.7655	1E-5
4.341428E+2	20.9987	20.9995	-0.8184	1E-5
4.204780E+2	21.9968	21.9965	0.3463	1E-5
4.077823E+2	22.9960	22.9940	1.9617	1E-5
3.959573E+2	23.9948	23.9912	3.5730	1E-5
3.848955E+2	24.9935	24.9891	4.3582	1E-5
3.745270E+2	25.9921	25.9869	5.2141	1E-5
3.647514E+2	26.9939	26.9877	6.1599	1E-5
2.951392E+2	36.3349	36.3351	-0.1882	1E-5
2.944364E+2	36.4556	36.4549	0.7078	1E-5
2.777118E+2	39.5000	39.5045	-4.5196	1E-5
2.258491E+2	52.1437	52.1611	-17.3657	1E-5
1.998989E+2	61.2004	61.2090	-8.5734	1E-5
1.805748E+2	69.7879	69.7828	5.0944	1E-5
1.614658E+2	80.4532	80.4355	17.7462	1E-4
1.464362E+2	90.9100	90.8940	15.9768	1E-4
1.385855E+2	97.3138	97.3046	9.1561	1E-4
1.242114E+2	111.2183	111.2221	-3.7534	1E-4
1.171815E+2	119.2946	119.3046	-10.0089	1E-4
1.100830E+2	128.5189	128.5312	-12.2557	1E-4
1.039423E+2	137.5232	137.5424	-19.1797	1E-4
9.772206E+1	147.8228	147.8393	-16.4777	1E-4
9.223701E+1	158.0890	158.0903	-1.3455	1E-4
8.816771E+1	166.5473	166.5393	8.0157	1E-4
8.375421E+1	176.6770	176.6627	14.3282	1E-4
7.970226E+1	187.0117	186.9893	22.3681	1E-4
7.635316E+1	196.4213	196.4001	21.1625	1E-4
7.384263E+1	204.0562	204.0524	3.8367	1E-4
7.113215E+1	212.9688	212.9665	2.3186	1E-4
7.101795E+1	213.3556	213.3582	-2.5679	1E-4
7.094575E+1	213.6087	213.6065	2.1961	1E-4
6.595422E+1	232.1814	232.2083	-26.8766	1E-4
6.333912E+1	243.2018	243.2325	-30.7335	1E-4
6.112677E+1	253.3494	253.3692	-19.7616	1E-4
5.800926E+1	269.1462	269.1230	23.2354	1E-4
5.770132E+1	270.7960	270.7845	11.4536	1E-4
5.425297E+1	290.9953	290.9534	41.9042	1E-4
5.279007E+1	300.5152	300.5505	-35.3138	1E-4
