**Manufacturer reference [X138028] 
=> Used on CM06 [TT22]**


Thermometre :	CX_LS_X138028
Environment :	VA
Date :	06/02/2020
Function :	 logT = Sum ( Ai / logR^i )
Coefficients :	
A0=	-1.496560310091311E+3
A1=	40.968845425018990E+3
A2=	-460.037574455212510E+3
A3=	2.862491704588526E+6
A4=	-11.043737959577613E+6
A5=	27.648378400592890E+6
A6=	-45.179630086836651E+6
A7=	46.650600385303862E+6
A8=	-27.696913318023279E+6
A9=	7.218734830579570E+6
Rmes(Ohm)	Tmes(K)	Tfit(K)	dT(mK)	Courant(A)
8.467565E+2	9.9294	9.9330	-3.5678	1E-5
7.897167E+2	10.9377	10.9343	3.3644	1E-5
7.426365E+2	11.9297	11.9258	3.9489	1E-5
7.024084E+2	12.9217	12.9191	2.6108	1E-5
6.675085E+2	13.9136	13.9128	0.8114	1E-5
6.368563E+2	14.9027	14.9055	-2.8434	1E-5
6.070316E+2	15.9954	15.9980	-2.6484	1E-5
5.825862E+2	16.9971	17.0015	-4.4228	1E-5
5.606064E+2	17.9956	17.9992	-3.5938	1E-5
5.405753E+2	18.9942	18.9976	-3.3584	1E-5
5.222442E+2	19.9920	19.9949	-2.9356	1E-5
5.053351E+2	20.9924	20.9942	-1.7907	1E-5
4.897258E+2	21.9911	21.9916	-0.4857	1E-5
4.752307E+2	22.9906	22.9890	1.6354	1E-5
4.620116E+2	23.9669	23.9642	2.6908	1E-5
4.494184E+2	24.9616	24.9570	4.5687	1E-5
4.375564E+2	25.9597	25.9542	5.4634	1E-5
4.262479E+2	26.9708	26.9659	4.9426	1E-5
4.156316E+2	27.9793	27.9743	5.0063	1E-5
4.056457E+2	28.9832	28.9790	4.1732	1E-5
3.483423E+2	36.0445	36.0440	0.5009	1E-5
3.253841E+2	39.6685	39.6758	-7.2995	1E-5
2.654020E+2	52.5123	52.5340	-21.6630	1E-5
2.368609E+2	61.2031	61.2149	-11.7583	1E-5
2.138854E+2	70.0663	70.0622	4.1157	1E-5
1.932413E+2	79.9975	79.9744	23.1020	1E-4
1.746917E+2	91.0622	91.0397	22.4675	1E-4
1.620706E+2	100.1245	100.1091	15.4289	1E-4
1.495321E+2	110.7047	110.7077	-3.0117	1E-4
1.408311E+2	119.1945	119.2099	-15.3933	1E-4
1.322490E+2	128.6959	128.7176	-21.6802	1E-4
1.248438E+2	137.9750	137.9895	-14.4844	1E-4
1.177221E+2	148.0045	148.0217	-17.1872	1E-4
1.116526E+2	157.5840	157.5969	-12.8564	1E-4
1.063450E+2	166.8939	166.8841	9.8254	1E-4
1.015105E+2	176.2193	176.2132	6.1300	1E-4
9.648712E+1	186.9636	186.9373	26.3105	1E-4
9.235728E+1	196.6968	196.6741	22.7199	1E-4
8.962819E+1	203.6489	203.6323	16.6384	1E-4
8.619967E+1	213.0598	213.0443	15.5254	1E-4
7.992086E+1	232.5316	232.5557	-24.1274	1E-4
7.669088E+1	243.9293	243.9540	-24.7479	1E-4
7.414512E+1	253.6743	253.7065	-32.2041	1E-4
7.024138E+1	270.1687	270.1845	-15.8343	1E-4
6.610977E+1	290.0960	290.0469	49.0720	1E-4
6.428230E+1	299.8624	299.8175	44.8990	1E-4
6.238163E+1	310.7350	310.7831	-48.0802	1E-4
