**Manufacturer reference [X139127] 
=> Used on CM04 [TT22]**


Thermometre :	CX_LS_X139127
Environment :	VA
Date :	06/02/2020
Function :	 logT = Sum ( Ai / logR^i )
Coefficients :	
A0=	957.219386373017980E+0
A1=	-14.717323732100096E+3
A2=	89.336962507624950E+3
A3=	-242.375164294293760E+3
A4=	67.391607249386288E+3
A5=	1.480474373915024E+6
A6=	-4.553570881055994E+6
A7=	6.504953808310009E+6
A8=	-4.760585620215267E+6
A9=	1.441384956980194E+6
Rmes(Ohm)	Tmes(K)	Tfit(K)	dT(mK)	Courant(A)
1.187376E+3	9.9297	9.9324	-2.6886	1E-5
1.095903E+3	10.9378	10.9353	2.4653	1E-5
1.021320E+3	11.9296	11.9265	3.0843	1E-5
9.581337E+2	12.9219	12.9201	1.8113	1E-5
9.037823E+2	13.9138	13.9136	0.1747	1E-5
8.565083E+2	14.9028	14.9038	-0.9628	1E-5
8.106349E+2	15.9953	15.9982	-2.9379	1E-5
7.733934E+2	16.9984	17.0008	-2.3670	1E-5
7.400059E+2	17.9985	18.0007	-2.1632	1E-5
7.098580E+2	18.9941	18.9978	-3.6581	1E-5
6.823943E+2	19.9926	19.9946	-1.9999	1E-5
6.571739E+2	20.9928	20.9940	-1.1642	1E-5
6.339596E+2	21.9923	21.9936	-1.2572	1E-5
6.125373E+2	22.9926	22.9917	0.9478	1E-5
5.931982E+2	23.9644	23.9619	2.5123	1E-5
5.746606E+2	24.9633	24.9600	3.3154	1E-5
5.573174E+2	25.9638	25.9601	3.6612	1E-5
5.409305E+2	26.9740	26.9698	4.1661	1E-5
5.255867E+2	27.9814	27.9776	3.8060	1E-5
5.111948E+2	28.9857	28.9826	3.1006	1E-5
4.295369E+2	36.0665	36.0657	0.8195	1E-5
3.975014E+2	39.6872	39.6933	-6.1072	1E-5
3.154117E+2	52.5228	52.5378	-14.9578	1E-5
2.771925E+2	61.2204	61.2258	-5.4041	1E-5
2.468339E+2	70.1082	70.1064	1.8274	1E-5
2.197868E+2	80.1437	80.1347	9.0189	1E-4
1.962158E+2	91.1779	91.1603	17.5675	1E-4
1.804067E+2	100.1879	100.1738	14.0995	1E-4
1.647930E+2	110.7598	110.7587	1.0825	1E-4
1.540440E+2	119.2597	119.2708	-11.0976	1E-4
1.435447E+2	128.7700	128.7853	-15.3336	1E-4
1.345797E+2	138.0388	138.0505	-11.6514	1E-4
1.260265E+2	148.0677	148.0817	-14.0228	1E-4
1.187999E+2	157.6425	157.6517	-9.2348	1E-4
1.125289E+2	166.9393	166.9304	8.8559	1E-4
1.068530E+2	176.2575	176.2545	2.9944	1E-4
1.009912E+2	187.0001	186.9800	20.1087	1E-4
9.621114E+1	196.7165	196.7010	15.4677	1E-4
9.309093E+1	203.6031	203.5947	8.4393	1E-4
8.915814E+1	213.0024	212.9895	12.8801	1E-4
8.199912E+1	232.4744	232.4940	-19.6402	1E-4
7.834826E+1	243.8649	243.8784	-13.5264	1E-4
7.548601E+1	253.5934	253.6161	-22.7180	1E-4
7.112556E+1	270.0487	270.0567	-8.0243	1E-4
6.653636E+1	289.9375	289.9055	32.0117	1E-4
6.451843E+1	299.6827	299.6568	25.8502	1E-4
6.240968E+1	310.6465	310.6757	-29.1676	1E-4
