**Manufacturer reference [X139113] 
=> Used on CM04 [TT08]**


Thermometre :	CX_LS_X139113
Environment :	VA
Date :	06/02/2020
Function :	 logT = Sum ( Ai / logR^i )
Coefficients :	
A0=	896.013921681230040E+0
A1=	-13.888413684573243E+3
A2=	84.922610984513216E+3
A3=	-231.474562920712840E+3
A4=	59.088177921512477E+3
A5=	1.464120981600235E+6
A6=	-4.518802803851406E+6
A7=	6.500147752001385E+6
A8=	-4.794023260821881E+6
A9=	1.463246829563534E+6
Rmes(Ohm)	Tmes(K)	Tfit(K)	dT(mK)	Courant(A)
1.285597E+3	9.9296	9.9326	-3.0044	1E-5
1.184482E+3	10.9378	10.9348	3.0164	1E-5
1.102083E+3	11.9296	11.9268	2.8489	1E-5
1.032507E+3	12.9219	12.9197	2.2400	1E-5
9.727117E+2	13.9138	13.9133	0.5395	1E-5
9.207373E+2	14.9028	14.9044	-1.5519	1E-5
8.704510E+2	15.9953	15.9983	-2.9500	1E-5
8.296369E+2	16.9983	17.0013	-3.0285	1E-5
7.931240E+2	17.9984	18.0008	-2.4286	1E-5
7.602052E+2	18.9941	18.9970	-2.8951	1E-5
7.301518E+2	19.9925	19.9962	-3.6604	1E-5
7.026854E+2	20.9928	20.9940	-1.2499	1E-5
6.774129E+2	21.9922	21.9926	-0.4017	1E-5
6.540665E+2	22.9925	22.9916	0.9367	1E-5
6.330342E+2	23.9646	23.9614	3.1809	1E-5
6.128784E+2	24.9632	24.9596	3.5633	1E-5
5.940413E+2	25.9636	25.9596	4.0168	1E-5
5.762446E+2	26.9738	26.9697	4.1079	1E-5
5.596090E+2	27.9812	27.9768	4.3666	1E-5
5.440011E+2	28.9855	28.9821	3.3566	1E-5
4.556703E+2	36.0652	36.0648	0.3968	1E-5
4.211055E+2	39.6861	39.6930	-6.8537	1E-5
3.328157E+2	52.5222	52.5380	-15.7606	1E-5
2.918589E+2	61.2194	61.2256	-6.1920	1E-5
2.594070E+2	70.1057	70.1033	2.4192	1E-5
2.305633E+2	80.1350	80.1246	10.4159	1E-4
2.054556E+2	91.1710	91.1522	18.7905	1E-4
1.886439E+2	100.1841	100.1691	14.9600	1E-4
1.720705E+2	110.7566	110.7562	0.3621	1E-4
1.606799E+2	119.2558	119.2686	-12.7565	1E-4
1.495698E+2	128.7656	128.7820	-16.3942	1E-4
1.400940E+2	138.0348	138.0472	-12.4303	1E-4
1.310651E+2	148.0637	148.0778	-14.1404	1E-4
1.234447E+2	157.6390	157.6480	-8.9533	1E-4
1.168387E+2	166.9365	166.9267	9.7811	1E-4
1.108647E+2	176.2551	176.2514	3.6906	1E-4
1.047007E+2	186.9979	186.9773	20.5679	1E-4
9.967749E+1	196.7153	196.7004	14.8701	1E-4
9.639985E+1	203.6060	203.5971	8.9300	1E-4
9.227276E+1	213.0059	212.9916	14.2676	1E-4
8.476525E+1	232.4780	232.4976	-19.5695	1E-4
8.093920E+1	243.8689	243.8840	-15.1310	1E-4
7.794128E+1	253.5982	253.6226	-24.4226	1E-4
7.337670E+1	270.0563	270.0645	-8.2217	1E-4
6.857678E+1	289.9470	289.9135	33.5358	1E-4
6.646753E+1	299.6940	299.6661	27.9392	1E-4
6.426532E+1	310.6521	310.6832	-31.1203	1E-4
