**Manufacturer reference [X139111] 
=> Used on CM04 [TT07]**


Thermometre :	CX_LS_X139111
Environment :	VA
Date :	06/02/2020
Function :	 logT = Sum ( Ai / logR^i )
Coefficients :	
A0=	852.538494357613670E+0
A1=	-10.194121484019892E+3
A2=	31.714606130287422E+3
A3=	124.345348600412330E+3
A4=	-1.307761306762442E+6
A5=	4.718367930455973E+6
A6=	-9.401261102800721E+6
A7=	10.979356311636856E+6
A8=	-7.072596857822782E+6
A9=	1.949080540870487E+6
Rmes(Ohm)	Tmes(K)	Tfit(K)	dT(mK)	Courant(A)
8.368789E+2	9.9298	9.9330	-3.1954	1E-5
7.781976E+2	10.9378	10.9350	2.8231	1E-5
7.298769E+2	11.9295	11.9267	2.7885	1E-5
6.887466E+2	12.9220	12.9182	3.8166	1E-5
6.529975E+2	13.9139	13.9134	0.4750	1E-5
6.217736E+2	14.9029	14.9036	-0.7371	1E-5
5.912896E+2	15.9953	15.9987	-3.3606	1E-5
5.663836E+2	16.9988	17.0029	-4.0581	1E-5
5.439491E+2	17.9997	18.0046	-4.9006	1E-5
5.237187E+2	18.9940	18.9977	-3.6958	1E-5
5.051085E+2	19.9928	19.9960	-3.2211	1E-5
4.879890E+2	20.9930	20.9947	-1.7074	1E-5
4.721778E+2	21.9928	21.9932	-0.4160	1E-5
4.575181E+2	22.9934	22.9914	2.0278	1E-5
4.442663E+2	23.9634	23.9597	3.7190	1E-5
4.314772E+2	24.9640	24.9594	4.6036	1E-5
4.194894E+2	25.9654	25.9601	5.3419	1E-5
4.081203E+2	26.9752	26.9711	4.1120	1E-5
3.974749E+2	27.9822	27.9773	4.9120	1E-5
3.874414E+2	28.9866	28.9828	3.7826	1E-5
3.299406E+2	36.0750	36.0754	-0.3895	1E-5
3.071491E+2	39.6944	39.7026	-8.2229	1E-5
2.479585E+2	52.5269	52.5437	-16.8305	1E-5
2.199505E+2	61.2271	61.2336	-6.4540	1E-5
1.974628E+2	70.1242	70.1229	1.3172	1E-5
1.771968E+2	80.1999	80.1877	12.1650	1E-4
1.594630E+2	91.2228	91.2007	22.1125	1E-4
1.474803E+2	100.2127	100.1975	15.2457	1E-4
1.355429E+2	110.7810	110.7803	0.7215	1E-4
1.272665E+2	119.2850	119.2987	-13.7428	1E-4
1.191444E+2	128.7987	128.8153	-16.5885	1E-4
1.121774E+2	138.0632	138.0776	-14.4139	1E-4
1.054980E+2	148.0921	148.1065	-14.4405	1E-4
9.982573E+1	157.6654	157.6808	-15.4217	1E-4
9.489036E+1	166.9569	166.9523	4.6140	1E-4
9.041013E+1	176.2723	176.2628	9.4501	1E-4
8.576063E+1	187.0142	186.9868	27.3622	1E-4
8.195792E+1	196.7240	196.7029	21.1310	1E-4
7.947564E+1	203.5855	203.5747	10.8403	1E-4
7.632982E+1	212.9798	212.9675	12.2889	1E-4
7.057765E+1	232.4524	232.4769	-24.5270	1E-4
6.763270E+1	243.8405	243.8602	-19.6794	1E-4
6.531879E+1	253.5625	253.5908	-28.2544	1E-4
6.178449E+1	270.0026	270.0079	-5.2858	1E-4
5.804912E+1	289.8767	289.8369	39.8450	1E-4
5.640249E+1	299.6137	299.5846	29.0913	1E-4
5.467426E+1	310.6121	310.6472	-35.0669	1E-4
