**Manufacturer reference [X139079] 
=> Used on CM05 [TT07]**


Thermometre :	CX_LS_X139079
Environment :	VA
Date :	06/02/2020
Function :	 logT = Sum ( Ai / logR^i )
Coefficients :	
A0=	1.207310883786294E+3
A1=	-18.996581438796467E+3
A2=	121.981875545452680E+3
A3=	-389.606282809470260E+3
A4=	505.271132142155320E+3
A5=	579.082697439689540E+3
A6=	-3.258225944411887E+6
A7=	5.249811311715420E+6
A8=	-4.020858612433694E+6
A9=	1.241534569566372E+6
Rmes(Ohm)	Tmes(K)	Tfit(K)	dT(mK)	Courant(A)
1.041264E+3	9.9296	9.9326	-2.9563	1E-5
9.641923E+2	10.9378	10.9357	2.0811	1E-5
9.012273E+2	11.9296	11.9250	4.6238	1E-5
8.474928E+2	12.9219	12.9204	1.5166	1E-5
8.012347E+2	13.9138	13.9135	0.2644	1E-5
7.608744E+2	14.9028	14.9035	-0.7168	1E-5
7.216021E+2	15.9953	15.9978	-2.5135	1E-5
6.895932E+2	16.9980	17.0017	-3.6591	1E-5
6.608650E+2	17.9976	18.0018	-4.2091	1E-5
6.349351E+2	18.9941	18.9966	-2.4595	1E-5
6.111505E+2	19.9924	19.9960	-3.5827	1E-5
5.893504E+2	20.9927	20.9942	-1.5447	1E-5
5.692608E+2	21.9919	21.9920	-0.1486	1E-5
5.506504E+2	22.9920	22.9905	1.4961	1E-5
5.338205E+2	23.9652	23.9613	3.8819	1E-5
5.176592E+2	24.9628	24.9604	2.4113	1E-5
5.025649E+2	25.9626	25.9584	4.2399	1E-5
4.882472E+2	26.9730	26.9683	4.6522	1E-5
4.748231E+2	27.9807	27.9764	4.2594	1E-5
4.622174E+2	28.9849	28.9817	3.2089	1E-5
3.904599E+2	36.0599	36.0588	1.0905	1E-5
3.621226E+2	39.6815	39.6878	-6.2739	1E-5
2.891029E+2	52.5196	52.5362	-16.6425	1E-5
2.549033E+2	61.2151	61.2227	-7.5949	1E-5
2.276490E+2	70.0954	70.0935	1.8809	1E-5
2.033231E+2	80.0992	80.0884	10.8177	1E-4
1.819577E+2	91.1425	91.1232	19.2744	1E-4
1.675790E+2	100.1686	100.1519	16.6990	1E-4
1.533648E+2	110.7431	110.7408	2.3011	1E-4
1.435635E+2	119.2399	119.2516	-11.7414	1E-4
1.339718E+2	128.7473	128.7652	-17.9044	1E-4
1.257643E+2	138.0191	138.0331	-14.0147	1E-4
1.179233E+2	148.0482	148.0649	-16.7122	1E-4
1.112878E+2	157.6246	157.6368	-12.1778	1E-4
1.055221E+2	166.9253	166.9180	7.3010	1E-4
1.003037E+2	176.2459	176.2335	12.3864	1E-4
9.489859E+1	186.9890	186.9690	20.0022	1E-4
9.048884E+1	196.7105	196.6948	15.7172	1E-4
8.760216E+1	203.6172	203.6070	10.1522	1E-4
8.396989E+1	213.0198	213.0060	13.7824	1E-4
7.735297E+1	232.4919	232.5130	-21.0687	1E-4
7.397428E+1	243.8845	243.9009	-16.3711	1E-4
7.132334E+1	253.6179	253.6426	-24.7496	1E-4
6.728050E+1	270.0861	270.0956	-9.4833	1E-4
6.302354E+1	289.9861	289.9509	35.1581	1E-4
6.115022E+1	299.7387	299.7076	31.0927	1E-4
5.919634E+1	310.6738	310.7076	-33.7832	1E-4
