**Manufacturer reference [X138081] 
=> Used on CM04 [TT04]**


Thermometre :	CX_LS_X138081
Environment :	VA
Date :	06/02/2020
Function :	 logT = Sum ( Ai / logR^i )
Coefficients :	
A0=	-1.171849556545839E+3
A1=	33.212499075173939E+3
A2=	-382.355634785891740E+3
A3=	2.427740476056552E+6
A4=	-9.532533216617001E+6
A5=	24.248676633909989E+6
A6=	-40.217741613759883E+6
A7=	42.117080975429751E+6
A8=	-25.346254386171229E+6
A9=	6.693239176080954E+6
Rmes(Ohm)	Tmes(K)	Tfit(K)	dT(mK)	Courant(A)
9.568780E+2	9.9294	9.9328	-3.4146	1E-5
8.895613E+2	10.9377	10.9344	3.2749	1E-5
8.342191E+2	11.9297	11.9260	3.7465	1E-5
7.870938E+2	12.9217	12.9193	2.3626	1E-5
7.463422E+2	13.9136	13.9129	0.7353	1E-5
7.106667E+2	14.9027	14.9049	-2.1935	1E-5
6.759801E+2	15.9954	15.9987	-3.3061	1E-5
6.476848E+2	16.9971	17.0011	-3.9809	1E-5
6.222744E+2	17.9957	17.9985	-2.8418	1E-5
5.991309E+2	18.9942	18.9982	-3.9633	1E-5
5.780480E+2	19.9920	19.9941	-2.1375	1E-5
5.585916E+2	20.9924	20.9942	-1.8137	1E-5
5.406651E+2	21.9911	21.9923	-1.1738	1E-5
5.240597E+2	22.9907	22.9894	1.2527	1E-5
5.089582E+2	23.9668	23.9632	3.6104	1E-5
4.945452E+2	24.9617	24.9577	3.9557	1E-5
4.810239E+2	25.9598	25.9541	5.7350	1E-5
4.681292E+2	26.9709	26.9665	4.4232	1E-5
4.560520E+2	27.9793	27.9747	4.6362	1E-5
4.447065E+2	28.9832	28.9791	4.1211	1E-5
3.798489E+2	36.0449	36.0444	0.5308	1E-5
3.540034E+2	39.6689	39.6758	-6.8542	1E-5
2.868585E+2	52.5125	52.5338	-21.3046	1E-5
2.551165E+2	61.2035	61.2148	-11.2972	1E-5
2.296657E+2	70.0672	70.0632	4.0157	1E-5
2.068786E+2	80.0004	79.9781	22.2754	1E-4
1.864830E+2	91.0645	91.0428	21.6852	1E-4
1.726498E+2	100.1258	100.1102	15.5849	1E-4
1.589404E+2	110.7058	110.7088	-2.9869	1E-4
1.494500E+2	119.1961	119.2105	-14.3519	1E-4
1.401068E+2	128.6974	128.7193	-21.9239	1E-4
1.320621E+2	137.9765	137.9910	-14.5043	1E-4
1.243402E+2	148.0057	148.0224	-16.6808	1E-4
1.177700E+2	157.5853	157.5975	-12.2404	1E-4
1.120329E+2	166.8949	166.8853	9.5865	1E-4
1.068150E+2	176.2200	176.2136	6.3932	1E-4
1.013993E+2	186.9644	186.9389	25.4878	1E-4
9.695276E+1	196.6973	196.6759	21.3618	1E-4
9.401810E+1	203.6478	203.6318	16.0031	1E-4
9.033351E+1	213.0586	213.0428	15.8386	1E-4
8.359418E+1	232.5303	232.5538	-23.4532	1E-4
8.013211E+1	243.9280	243.9516	-23.5735	1E-4
7.740575E+1	253.6722	253.7037	-31.5401	1E-4
7.322901E+1	270.1663	270.1820	-15.6870	1E-4
6.881341E+1	290.0923	290.0454	46.8943	1E-4
6.686209E+1	299.8588	299.8143	44.5365	1E-4
6.483268E+1	310.7332	310.7801	-46.8508	1E-4
