**Manufacturer reference [X139090] 
=> Used on CM05 [TT12]**


Thermometre :	CX_LS_X139090
Environment :	VA
Date :	06/02/2020
Function :	 logT = Sum ( Ai / logR^i )
Coefficients :	
A0=	1.013969488080774E+3
A1=	-16.093141568300811E+3
A2=	103.136360604510640E+3
A3=	-318.910017462118940E+3
A4=	328.349120282518620E+3
A5=	911.408869532064420E+3
A6=	-3.760870812205611E+6
A7=	5.828954340280836E+6
A8=	-4.444810640848225E+6
A9=	1.381707294976532E+6
Rmes(Ohm)	Tmes(K)	Tfit(K)	dT(mK)	Courant(A)
1.254486E+3	9.9296	9.9325	-2.8683	1E-5
1.157099E+3	10.9378	10.9352	2.6479	1E-5
1.077700E+3	11.9296	11.9265	3.0635	1E-5
1.010505E+3	12.9219	12.9197	2.1723	1E-5
9.526866E+2	13.9138	13.9136	0.1623	1E-5
9.024375E+2	14.9028	14.9038	-0.9707	1E-5
8.537119E+2	15.9953	15.9979	-2.5542	1E-5
8.141258E+2	16.9981	17.0011	-3.0413	1E-5
7.786953E+2	17.9979	18.0005	-2.5617	1E-5
7.467111E+2	18.9941	18.9970	-2.8604	1E-5
7.175030E+2	19.9924	19.9960	-3.6097	1E-5
6.907738E+2	20.9927	20.9944	-1.7352	1E-5
6.661807E+2	21.9920	21.9929	-0.8506	1E-5
6.434601E+2	22.9922	22.9911	1.0852	1E-5
6.229658E+2	23.9650	23.9609	4.0632	1E-5
6.032979E+2	24.9629	24.9600	2.8800	1E-5
5.849322E+2	25.9629	25.9595	3.4092	1E-5
5.675812E+2	26.9733	26.9686	4.7494	1E-5
5.513217E+2	27.9809	27.9767	4.2180	1E-5
5.360699E+2	28.9851	28.9824	2.7414	1E-5
4.497030E+2	36.0616	36.0605	1.0615	1E-5
4.158183E+2	39.6830	39.6889	-5.8899	1E-5
3.290961E+2	52.5205	52.5361	-15.5635	1E-5
2.887938E+2	61.2165	61.2234	-6.8533	1E-5
2.568324E+2	70.0989	70.0974	1.5393	1E-5
2.284249E+2	80.1113	80.1017	9.6197	1E-4
2.036173E+2	91.1521	91.1341	17.9956	1E-4
1.869906E+2	100.1737	100.1576	16.1371	1E-4
1.706002E+2	110.7474	110.7454	2.0435	1E-4
1.593313E+2	119.2451	119.2560	-10.8833	1E-4
1.483312E+2	128.7535	128.7700	-16.4962	1E-4
1.389434E+2	138.0244	138.0372	-12.7642	1E-4
1.299958E+2	148.0534	148.0686	-15.1529	1E-4
1.224404E+2	157.6294	157.6407	-11.2526	1E-4
1.158897E+2	166.9290	166.9205	8.5451	1E-4
1.099652E+2	176.2489	176.2452	3.6566	1E-4
1.038517E+2	186.9920	186.9709	21.0754	1E-4
9.886843E+1	196.7121	196.6957	16.3700	1E-4
9.561262E+1	203.6134	203.6030	10.3937	1E-4
9.151827E+1	213.0152	213.0010	14.2182	1E-4
8.407388E+1	232.4872	232.5071	-19.9009	1E-4
8.028028E+1	243.8794	243.8944	-15.0083	1E-4
7.730749E+1	253.6112	253.6356	-24.3789	1E-4
7.278026E+1	270.0765	270.0868	-10.3136	1E-4
6.802175E+1	289.9729	289.9392	33.7231	1E-4
6.593055E+1	299.7244	299.6940	30.3703	1E-4
6.375001E+1	310.6665	310.6989	-32.4486	1E-4
