**Manufacturer reference [X138365] 
=> Used on CM09 [TT22]**


Thermometre :	CX_LS_X138365
Environment :	VA
Date :	06/02/2020
Function :	 logT = Sum ( Ai / logR^i )
Coefficients :	
A0=	756.382267586830610E+0
A1=	-12.112157542359015E+3
A2=	78.015756966590765E+3
A3=	-239.987667806830580E+3
A4=	227.108013471832180E+3
A5=	802.586403845697180E+3
A6=	-3.149537515895170E+6
A7=	4.864828582060996E+6
A8=	-3.724765487229609E+6
A9=	1.165495337007508E+6
Rmes(Ohm)	Tmes(K)	Tfit(K)	dT(mK)	Courant(A)
1.456623E+3	9.9295	9.9326	-3.0636	1E-5
1.336259E+3	10.9377	10.9349	2.7588	1E-5
1.238618E+3	11.9297	11.9263	3.4369	1E-5
1.156373E+3	12.9218	12.9196	2.1778	1E-5
1.086021E+3	13.9137	13.9123	1.3503	1E-5
1.024912E+3	14.9028	14.9051	-2.3354	1E-5
9.661496E+2	15.9954	15.9977	-2.2999	1E-5
9.184437E+2	16.9977	17.0029	-5.2018	1E-5
8.760416E+2	17.9969	18.0008	-3.9004	1E-5
8.378922E+2	18.9941	18.9958	-1.6620	1E-5
8.031166E+2	19.9922	19.9946	-2.4062	1E-5
7.713674E+2	20.9926	20.9936	-0.9505	1E-5
7.422796E+2	21.9916	21.9911	0.4572	1E-5
7.154264E+2	22.9915	22.9907	0.8499	1E-5
6.912616E+2	23.9658	23.9620	3.7500	1E-5
6.682193E+2	24.9624	24.9589	3.5434	1E-5
6.467139E+2	25.9616	25.9579	3.7139	1E-5
6.264088E+2	26.9722	26.9683	3.8696	1E-5
6.074480E+2	27.9802	27.9767	3.5414	1E-5
5.897223E+2	28.9843	28.9813	2.9702	1E-5
4.900673E+2	36.0545	36.0538	0.6909	1E-5
4.513002E+2	39.6768	39.6830	-6.2254	1E-5
3.531591E+2	52.5171	52.5335	-16.4482	1E-5
3.081432E+2	61.2108	61.2184	-7.5773	1E-5
2.727452E+2	70.0852	70.0826	2.5694	1E-5
2.415663E+2	80.0633	80.0507	12.6323	1E-4
2.143855E+2	91.1141	91.0954	18.7304	1E-4
1.962614E+2	100.1527	100.1368	15.8847	1E-4
1.785135E+2	110.7294	110.7291	0.2615	1E-4
1.663751E+2	119.2240	119.2361	-12.1422	1E-4
1.545679E+2	128.7293	128.7480	-18.7200	1E-4
1.445235E+2	138.0038	138.0172	-13.4236	1E-4
1.349857E+2	148.0326	148.0480	-15.4259	1E-4
1.269559E+2	157.6102	157.6218	-11.5600	1E-4
1.200116E+2	166.9141	166.9058	8.3324	1E-4
1.137546E+2	176.2362	176.2229	13.2858	1E-4
1.073014E+2	186.9800	186.9600	19.9865	1E-4
1.020554E+2	196.7057	196.6910	14.6526	1E-4
9.862574E+1	203.6284	203.6192	9.2431	1E-4
9.433095E+1	213.0341	213.0201	14.0448	1E-4
8.654151E+1	232.5059	232.5274	-21.4632	1E-4
8.258034E+1	243.9002	243.9173	-17.0741	1E-4
7.948030E+1	253.6376	253.6621	-24.5304	1E-4
7.476615E+1	270.1151	270.1244	-9.3093	1E-4
6.982241E+1	290.0247	289.9890	35.6590	1E-4
6.765289E+1	299.7821	299.7498	32.2772	1E-4
6.539789E+1	310.6953	310.7303	-34.9636	1E-4
