**Manufacturer reference [X133045] 
=> Used on CM01 [TT08]**


Thermometre :	CX_LS_X133045
Environment :	VA
Date :	25/01/2019
Function :	 logT = Sum ( Ai / logR^i )
Coefficients :	
A0=	742.934330192110680E+0
A1=	-7.825218309554657E+3
A2=	11.273280912217857E+3
A3=	217.012639304980020E+3
A4=	-1.543277238606608E+6
A5=	5.025688477462227E+6
A6=	-9.475075276872836E+6
A7=	10.643931530699546E+6
A8=	-6.645856949582782E+6
A9=	1.782635174420656E+6
Rmes(Ohm)	Tmes(K)	Tfit(K)	dT(mK)	Courant(A)
7.444656E+2	9.9338	9.9372	-3.3924	1E-5
6.930067E+2	10.9393	10.9362	3.0797	1E-5
6.505065E+2	11.9317	11.9275	4.1523	1E-5
6.142107E+2	12.9238	12.9219	1.9472	1E-5
5.827862E+2	13.9154	13.9159	-0.4809	1E-5
5.552226E+2	14.9088	14.9088	-0.0401	1E-5
5.283585E+2	16.0016	16.0048	-3.2239	1E-5
5.065146E+2	17.0005	17.0045	-4.0253	1E-5
4.867911E+2	17.9996	18.0034	-3.8401	1E-5
4.688757E+2	18.9976	19.0007	-3.0560	1E-5
4.524873E+2	19.9944	19.9973	-2.8809	1E-5
4.374068E+2	20.9927	20.9941	-1.3946	1E-5
4.233046E+2	22.0028	22.0032	-0.3861	1E-5
4.106081E+2	22.9830	22.9821	0.9162	1E-5
3.983655E+2	23.9978	23.9956	2.2024	1E-5
3.872413E+2	24.9856	24.9815	4.0794	1E-5
3.764772E+2	26.0058	26.0000	5.8226	1E-5
3.668288E+2	26.9770	26.9715	5.4622	1E-5
3.571782E+2	28.0099	28.0036	6.2746	1E-5
2.908721E+2	37.2242	37.2233	0.8643	1E-5
2.902286E+2	37.3356	37.3360	-0.3970	1E-5
2.822257E+2	38.7824	38.7846	-2.1910	1E-5
2.815462E+2	38.9101	38.9118	-1.6734	1E-5
2.236843E+2	52.8796	52.8932	-13.5732	1E-5
2.233933E+2	52.9716	52.9836	-11.9608	1E-5
1.995731E+2	61.3534	61.3561	-2.6997	1E-5
1.782947E+2	70.9008	70.8931	7.6617	1E-5
1.599201E+2	81.3478	81.3311	16.7309	1E-4
1.345399E+2	100.7662	100.7468	19.4427	1E-4
1.236239E+2	111.6682	111.6614	6.7991	1E-4
1.159924E+2	120.5447	120.5472	-2.5276	1E-4
1.089912E+2	129.8044	129.8163	-11.8635	1E-4
1.027525E+2	139.1319	139.1578	-25.8834	1E-4
9.589164E+1	150.8364	150.8577	-21.2911	1E-4
9.149702E+1	159.2814	159.2928	-11.4395	1E-4
8.318106E+1	177.7840	177.7739	10.1496	1E-4
7.819040E+1	190.8698	190.8454	24.4445	1E-4
7.552243E+1	198.6164	198.5885	27.9018	1E-4
7.241896E+1	208.3927	208.3700	22.7179	1E-4
6.955405E+1	218.2502	218.2437	6.4611	1E-4
6.446751E+1	238.1436	238.1617	-18.1022	1E-4
6.185727E+1	249.7600	249.7988	-38.7882	1E-4
6.037113E+1	256.8995	256.9281	-28.5552	1E-4
5.759066E+1	271.3748	271.3886	-13.8026	1E-4
5.611415E+1	279.7398	279.7410	-1.1847	1E-4
5.435764E+1	290.4283	290.3838	44.4642	1E-4
5.341066E+1	296.5126	296.4819	30.6825	1E-4
5.291080E+1	299.8399	299.8140	25.8852	1E-4
5.131999E+1	310.9560	311.0055	-49.5116	1E-4
