**Manufacturer reference [X132597] 
=> Used on CM01 [TT05]**


Thermometre :	CX_LS_X132597
Environment :	VA
Date :	25/01/2019
Function :	 logT = Sum ( Ai / logR^i )
Coefficients :	
A0=	-961.163086226518200E+0
A1=	25.719719428464727E+3
A2=	-295.095852953220720E+3
A3=	1.920024391230908E+6
A4=	-7.849431535428279E+6
A5=	20.996148845437441E+6
A6=	-36.856464765216269E+6
A7=	41.032527954975627E+6
A8=	-26.333906524854567E+6
A9=	7.432667679438174E+6
Rmes(Ohm)	Tmes(K)	Tfit(K)	dT(mK)	Courant(A)
2.226956E+3	9.9338	9.9359	-2.1364	1E-5
2.023211E+3	10.9393	10.9372	2.0749	1E-5
1.859651E+3	11.9316	11.9292	2.4282	1E-5
1.723613E+3	12.9237	12.9217	2.0141	1E-5
1.608159E+3	13.9153	13.9160	-0.6556	1E-5
1.508846E+3	14.9086	14.9101	-1.4933	1E-5
1.414261E+3	16.0017	16.0036	-1.8578	1E-5
1.338606E+3	17.0002	17.0027	-2.4622	1E-5
1.271338E+3	17.9992	18.0018	-2.6149	1E-5
1.211221E+3	18.9973	18.9982	-0.8795	1E-5
1.156919E+3	19.9938	19.9955	-1.7323	1E-5
1.107676E+3	20.9917	20.9919	-0.1748	1E-5
1.061915E+3	22.0050	22.0073	-2.2963	1E-5
1.021801E+3	22.9803	22.9778	2.4636	1E-5
9.829622E+2	23.9989	23.9983	0.6256	1E-5
9.484226E+2	24.9842	24.9805	3.6625	1E-5
9.150133E+2	26.0084	26.0055	2.9058	1E-5
8.857897E+2	26.9741	26.9690	5.0768	1E-5
8.563743E+2	28.0122	28.0088	3.3956	1E-5
6.637312E+2	37.2110	37.2103	0.7167	1E-5
6.618811E+2	37.3229	37.3256	-2.6862	1E-5
6.396303E+2	38.7664	38.7661	0.3254	1E-5
6.376277E+2	38.8991	38.9008	-1.6895	1E-5
4.821127E+2	52.8650	52.8759	-10.9054	1E-5
4.812763E+2	52.9661	52.9760	-9.9225	1E-5
4.205057E+2	61.3360	61.3350	0.9586	1E-5
3.677630E+2	70.8706	70.8638	6.7913	1E-5
3.235241E+2	81.2870	81.2746	12.4268	1E-4
2.642050E+2	100.7130	100.6963	16.7399	1E-4
2.393845E+2	111.6409	111.6363	4.5949	1E-4
2.223415E+2	120.5204	120.5258	-5.4372	1E-4
2.069161E+2	129.7803	129.7933	-13.0103	1E-4
1.933410E+2	139.1091	139.1284	-19.2996	1E-4
1.785829E+2	150.8119	150.8270	-15.1354	1E-4
1.692272E+2	159.2563	159.2632	-6.9222	1E-4
1.517582E+2	177.7297	177.7205	9.1896	1E-4
1.413581E+2	190.8580	190.8387	19.2668	1E-4
1.358586E+2	198.6072	198.5843	22.8555	1E-4
1.294875E+2	208.4039	208.3851	18.7513	1E-4
1.236537E+2	218.2641	218.2576	6.4733	1E-4
1.133786E+2	238.1599	238.1761	-16.2490	1E-4
1.081484E+2	249.7805	249.8153	-34.7561	1E-4
1.051847E+2	256.9217	256.9444	-22.7309	1E-4
9.966060E+1	271.4097	271.4210	-11.3254	1E-4
9.673640E+1	279.7905	279.7974	-6.9086	1E-4
9.327738E+1	290.4925	290.4483	44.1844	1E-4
9.143777E+1	296.5129	296.4833	29.6313	1E-4
9.043710E+1	299.9060	299.8860	19.9842	1E-4
8.732715E+1	311.0231	311.0674	-44.2781	1E-4
