**Manufacturer reference [X138420] 
=> Used on CM14 [TT22]**


Thermometre :	CX_LS_X138420
Environment :	VA
Date :	06/02/2020
Function :	 logT = Sum ( Ai / logR^i )
Coefficients :	
A0=	1.019719217542160E+3
A1=	-15.141155379239595E+3
A2=	87.710905487139258E+3
A3=	-216.529743876119520E+3
A4=	-41.776246709261235E+3
A5=	1.699028239465866E+6
A6=	-4.737073230224556E+6
A7=	6.455060332694380E+6
A8=	-4.563257897591736E+6
A9=	1.341336249037568E+6
Rmes(Ohm)	Tmes(K)	Tfit(K)	dT(mK)	Courant(A)
9.759083E+2	9.9296	9.9326	-2.9740	1E-5
9.042289E+2	10.9377	10.9349	2.7728	1E-5
8.454114E+2	11.9296	11.9265	3.0679	1E-5
7.954070E+2	12.9219	12.9196	2.3115	1E-5
7.522057E+2	13.9138	13.9131	0.6932	1E-5
7.144666E+2	14.9028	14.9042	-1.4443	1E-5
6.778042E+2	15.9954	15.9976	-2.2081	1E-5
6.478465E+2	16.9979	17.0028	-4.9351	1E-5
6.210530E+2	17.9975	18.0006	-3.0731	1E-5
5.967772E+2	18.9941	18.9964	-2.3436	1E-5
5.745493E+2	19.9924	19.9951	-2.6802	1E-5
5.541570E+2	20.9927	20.9933	-0.6259	1E-5
5.353370E+2	21.9919	21.9925	-0.6382	1E-5
5.179230E+2	22.9919	22.9912	0.6831	1E-5
5.021875E+2	23.9653	23.9614	3.9033	1E-5
4.870706E+2	24.9627	24.9602	2.5448	1E-5
4.729472E+2	25.9623	25.9581	4.2219	1E-5
4.595437E+2	26.9728	26.9685	4.2997	1E-5
4.469862E+2	27.9806	27.9762	4.3592	1E-5
4.351855E+2	28.9847	28.9819	2.8361	1E-5
3.680414E+2	36.0585	36.0579	0.5786	1E-5
3.415203E+2	39.6803	39.6870	-6.6572	1E-5
2.731809E+2	52.5190	52.5353	-16.3118	1E-5
2.411727E+2	61.2140	61.2205	-6.5322	1E-5
2.156598E+2	70.0927	70.0895	3.1749	1E-5
1.928889E+2	80.0900	80.0779	12.0812	1E-4
1.728594E+2	91.1352	91.1173	17.9137	1E-4
1.593743E+2	100.1644	100.1502	14.1528	1E-4
1.460432E+2	110.7396	110.7405	-0.8511	1E-4
1.368515E+2	119.2360	119.2482	-12.1503	1E-4
1.278513E+2	128.7429	128.7597	-16.7956	1E-4
1.201458E+2	138.0153	138.0270	-11.6929	1E-4
1.127816E+2	148.0442	148.0580	-13.8286	1E-4
1.065461E+2	157.6209	157.6308	-9.8838	1E-4
1.011265E+2	166.9226	166.9118	10.8193	1E-4
9.621313E+1	176.2434	176.2395	3.9220	1E-4
9.113264E+1	186.9867	186.9659	20.7872	1E-4
8.698101E+1	196.7093	196.6941	15.2050	1E-4
8.426119E+1	203.6201	203.6108	9.2961	1E-4
8.083981E+1	213.0235	213.0097	13.8276	1E-4
7.460293E+1	232.4955	232.5162	-20.6689	1E-4
7.141599E+1	243.8884	243.9045	-16.0822	1E-4
6.891461E+1	253.6227	253.6464	-23.7193	1E-4
6.509784E+1	270.0932	270.1022	-9.0056	1E-4
6.107704E+1	289.9956	289.9611	34.4976	1E-4
5.930686E+1	299.7494	299.7189	30.5201	1E-4
5.746070E+1	310.6791	310.7125	-33.3837	1E-4
